J,h,magnetization_density
0.000,0.000,-1.000000
0.000,0.061,-0.951608
0.000,0.122,-0.906416
0.000,0.184,-0.863360
0.000,0.245,-0.821072
0.000,0.306,-0.781384
0.000,0.367,-0.743232
0.000,0.429,-0.707304
0.000,0.490,-0.672840
0.000,0.551,-0.639776
0.000,0.612,-0.608848
0.000,0.673,-0.578968
0.000,0.735,-0.550448
0.000,0.796,-0.523480
0.000,0.857,-0.497680
0.000,0.918,-0.472272
0.000,0.980,-0.447960
0.000,1.041,-0.425648
0.000,1.102,-0.404744
0.000,1.163,-0.384592
0.000,1.224,-0.364760
0.000,1.286,-0.346056
0.000,1.347,-0.328016
0.000,1.408,-0.309632
0.000,1.469,-0.294440
0.000,1.531,-0.279704
0.000,1.592,-0.265624
0.000,1.653,-0.251528
0.000,1.714,-0.238800
0.000,1.776,-0.225888
0.000,1.837,-0.213712
0.000,1.898,-0.202808
0.000,1.959,-0.191656
0.000,2.020,-0.180856
0.000,2.082,-0.170816
0.000,2.143,-0.160944
0.000,2.204,-0.151816
0.000,2.265,-0.142792
0.000,2.327,-0.133872
0.000,2.388,-0.126176
0.000,2.449,-0.118568
0.000,2.510,-0.111008
0.000,2.571,-0.103864
0.000,2.633,-0.096472
0.000,2.694,-0.090448
0.000,2.755,-0.083136
0.000,2.816,-0.076968
0.000,2.878,-0.071424
0.000,2.939,-0.066328
0.000,3.000,-0.060832
0.061,0.000,-0.820656
0.061,0.061,-0.819136
0.061,0.122,-0.817408
0.061,0.184,-0.811048
0.061,0.245,-0.803584
0.061,0.306,-0.764336
0.061,0.367,-0.728112
0.061,0.429,-0.692888
0.061,0.490,-0.659184
0.061,0.551,-0.626976
0.061,0.612,-0.595752
0.061,0.673,-0.566472
0.061,0.735,-0.538152
0.061,0.796,-0.511208
0.061,0.857,-0.485504
0.061,0.918,-0.462048
0.061,0.980,-0.438712
0.061,1.041,-0.416520
0.061,1.102,-0.395176
0.061,1.163,-0.374888
0.061,1.224,-0.356248
0.061,1.286,-0.338512
0.061,1.347,-0.320616
0.061,1.408,-0.303960
0.061,1.469,-0.288040
0.061,1.531,-0.271832
0.061,1.592,-0.257728
0.061,1.653,-0.243984
0.061,1.714,-0.231616
0.061,1.776,-0.219240
0.061,1.837,-0.207864
0.061,1.898,-0.196576
0.061,1.959,-0.185744
0.061,2.020,-0.175376
0.061,2.082,-0.165648
0.061,2.143,-0.156392
0.061,2.204,-0.147104
0.061,2.265,-0.138696
0.061,2.327,-0.130216
0.061,2.388,-0.121832
0.061,2.449,-0.114848
0.061,2.510,-0.107144
0.061,2.571,-0.100072
0.061,2.633,-0.092984
0.061,2.694,-0.086464
0.061,2.755,-0.080184
0.061,2.816,-0.074344
0.061,2.878,-0.068712
0.061,2.939,-0.063712
0.061,3.000,-0.058976
0.122,0.000,-0.667472
0.122,0.061,-0.663800
0.122,0.122,-0.662024
0.122,0.184,-0.658528
0.122,0.245,-0.655256
0.122,0.306,-0.646736
0.122,0.367,-0.637480
0.122,0.429,-0.627936
0.122,0.490,-0.618584
0.122,0.551,-0.588832
0.122,0.612,-0.561120
0.122,0.673,-0.532640
0.122,0.735,-0.504944
0.122,0.796,-0.480936
0.122,0.857,-0.456976
0.122,0.918,-0.433456
0.122,0.980,-0.411720
0.122,1.041,-0.390896
0.122,1.102,-0.370696
0.122,1.163,-0.352248
0.122,1.224,-0.334384
0.122,1.286,-0.316952
0.122,1.347,-0.300488
0.122,1.408,-0.285080
0.122,1.469,-0.270160
0.122,1.531,-0.255112
0.122,1.592,-0.241688
0.122,1.653,-0.227840
0.122,1.714,-0.215680
0.122,1.776,-0.203440
0.122,1.837,-0.191832
0.122,1.898,-0.181400
0.122,1.959,-0.172040
0.122,2.020,-0.162576
0.122,2.082,-0.153872
0.122,2.143,-0.144752
0.122,2.204,-0.136480
0.122,2.265,-0.127856
0.122,2.327,-0.120184
0.122,2.388,-0.112480
0.122,2.449,-0.105416
0.122,2.510,-0.098320
0.122,2.571,-0.091728
0.122,2.633,-0.085784
0.122,2.694,-0.079680
0.122,2.755,-0.073456
0.122,2.816,-0.067704
0.122,2.878,-0.062672
0.122,2.939,-0.057984
0.122,3.000,-0.053000
0.184,0.000,-0.531576
0.184,0.061,-0.527512
0.184,0.122,-0.523208
0.184,0.184,-0.518904
0.184,0.245,-0.513800
0.184,0.306,-0.509424
0.184,0.367,-0.507216
0.184,0.429,-0.496776
0.184,0.490,-0.486960
0.184,0.551,-0.478840
0.184,0.612,-0.470560
0.184,0.673,-0.462736
0.184,0.735,-0.453480
0.184,0.796,-0.431408
0.184,0.857,-0.410136
0.184,0.918,-0.389664
0.184,0.980,-0.368808
0.184,1.041,-0.349352
0.184,1.102,-0.331648
0.184,1.163,-0.315576
0.184,1.224,-0.299488
0.184,1.286,-0.284024
0.184,1.347,-0.268584
0.184,1.408,-0.254640
0.184,1.469,-0.241168
0.184,1.531,-0.227888
0.184,1.592,-0.215296
0.184,1.653,-0.203232
0.184,1.714,-0.191896
0.184,1.776,-0.180720
0.184,1.837,-0.170840
0.184,1.898,-0.160872
0.184,1.959,-0.153008
0.184,2.020,-0.143872
0.184,2.082,-0.135280
0.184,2.143,-0.126424
0.184,2.204,-0.119240
0.184,2.265,-0.111912
0.184,2.327,-0.104368
0.184,2.388,-0.097832
0.184,2.449,-0.091600
0.184,2.510,-0.085560
0.184,2.571,-0.079208
0.184,2.633,-0.073760
0.184,2.694,-0.067776
0.184,2.755,-0.062672
0.184,2.816,-0.058008
0.184,2.878,-0.053776
0.184,2.939,-0.048728
0.184,3.000,-0.044592
0.245,0.000,-0.402880
0.245,0.061,-0.398328
0.245,0.122,-0.394248
0.245,0.184,-0.388800
0.245,0.245,-0.383856
0.245,0.306,-0.380272
0.245,0.367,-0.376328
0.245,0.429,-0.372480
0.245,0.490,-0.367896
0.245,0.551,-0.361128
0.245,0.612,-0.354512
0.245,0.673,-0.346112
0.245,0.735,-0.338896
0.245,0.796,-0.333480
0.245,0.857,-0.326008
0.245,0.918,-0.318928
0.245,0.980,-0.311704
0.245,1.041,-0.296368
0.245,1.102,-0.281416
0.245,1.163,-0.266336
0.245,1.224,-0.251856
0.245,1.286,-0.238304
0.245,1.347,-0.225248
0.245,1.408,-0.213488
0.245,1.469,-0.202224
0.245,1.531,-0.190888
0.245,1.592,-0.180680
0.245,1.653,-0.170960
0.245,1.714,-0.161888
0.245,1.776,-0.151632
0.245,1.837,-0.142776
0.245,1.898,-0.134016
0.245,1.959,-0.126000
0.245,2.020,-0.117592
0.245,2.082,-0.110840
0.245,2.143,-0.104320
0.245,2.204,-0.098392
0.245,2.265,-0.091840
0.245,2.327,-0.085128
0.245,2.388,-0.079304
0.245,2.449,-0.073776
0.245,2.510,-0.067696
0.245,2.571,-0.062496
0.245,2.633,-0.057744
0.245,2.694,-0.052656
0.245,2.755,-0.048632
0.245,2.816,-0.044392
0.245,2.878,-0.040672
0.245,2.939,-0.036968
0.245,3.000,-0.033728
0.306,0.000,-0.280376
0.306,0.061,-0.276648
0.306,0.122,-0.272232
0.306,0.184,-0.266600
0.306,0.245,-0.263760
0.306,0.306,-0.260808
0.306,0.367,-0.257136
0.306,0.429,-0.253704
0.306,0.490,-0.251088
0.306,0.551,-0.247736
0.306,0.612,-0.244992
0.306,0.673,-0.240896
0.306,0.735,-0.234360
0.306,0.796,-0.229800
0.306,0.857,-0.225104
0.306,0.918,-0.219192
0.306,0.980,-0.214192
0.306,1.041,-0.209784
0.306,1.102,-0.204248
0.306,1.163,-0.200152
0.306,1.224,-0.195560
0.306,1.286,-0.184840
0.306,1.347,-0.174264
0.306,1.408,-0.164512
0.306,1.469,-0.156288
0.306,1.531,-0.146952
0.306,1.592,-0.139328
0.306,1.653,-0.130864
0.306,1.714,-0.123584
0.306,1.776,-0.115480
0.306,1.837,-0.108088
0.306,1.898,-0.101456
0.306,1.959,-0.094856
0.306,2.020,-0.088216
0.306,2.082,-0.082120
0.306,2.143,-0.076608
0.306,2.204,-0.071408
0.306,2.265,-0.065896
0.306,2.327,-0.061536
0.306,2.388,-0.057272
0.306,2.449,-0.052784
0.306,2.510,-0.048328
0.306,2.571,-0.043472
0.306,2.633,-0.039224
0.306,2.694,-0.035128
0.306,2.755,-0.031448
0.306,2.816,-0.028008
0.306,2.878,-0.024784
0.306,2.939,-0.021904
0.306,3.000,-0.019896
0.367,0.000,-0.163520
0.367,0.061,-0.161488
0.367,0.122,-0.159120
0.367,0.184,-0.156336
0.367,0.245,-0.152856
0.367,0.306,-0.150664
0.367,0.367,-0.147944
0.367,0.429,-0.145536
0.367,0.490,-0.143936
0.367,0.551,-0.142088
0.367,0.612,-0.139872
0.367,0.673,-0.136512
0.367,0.735,-0.133280
0.367,0.796,-0.131048
0.367,0.857,-0.127768
0.367,0.918,-0.125768
0.367,0.980,-0.122952
0.367,1.041,-0.121320
0.367,1.102,-0.119176
0.367,1.163,-0.115976
0.367,1.224,-0.113448
0.367,1.286,-0.112088
0.367,1.347,-0.108808
0.367,1.408,-0.105312
0.367,1.469,-0.103704
0.367,1.531,-0.096888
0.367,1.592,-0.090872
0.367,1.653,-0.085168
0.367,1.714,-0.080416
0.367,1.776,-0.074728
0.367,1.837,-0.068936
0.367,1.898,-0.064216
0.367,1.959,-0.058216
0.367,2.020,-0.053832
0.367,2.082,-0.049784
0.367,2.143,-0.044672
0.367,2.204,-0.041384
0.367,2.265,-0.037576
0.367,2.327,-0.034552
0.367,2.388,-0.031936
0.367,2.449,-0.028344
0.367,2.510,-0.024976
0.367,2.571,-0.022144
0.367,2.633,-0.019328
0.367,2.694,-0.016480
0.367,2.755,-0.013680
0.367,2.816,-0.010320
0.367,2.878,-0.007768
0.367,2.939,-0.005928
0.367,3.000,-0.004280
0.429,0.000,-0.058216
0.429,0.061,-0.056112
0.429,0.122,-0.053888
0.429,0.184,-0.052824
0.429,0.245,-0.050944
0.429,0.306,-0.051064
0.429,0.367,-0.049488
0.429,0.429,-0.047616
0.429,0.490,-0.046592
0.429,0.551,-0.044976
0.429,0.612,-0.042784
0.429,0.673,-0.041672
0.429,0.735,-0.041304
0.429,0.796,-0.039400
0.429,0.857,-0.039016
0.429,0.918,-0.039232
0.429,0.980,-0.039512
0.429,1.041,-0.039392
0.429,1.102,-0.040024
0.429,1.163,-0.039752
0.429,1.224,-0.038536
0.429,1.286,-0.036920
0.429,1.347,-0.035552
0.429,1.408,-0.035584
0.429,1.469,-0.035656
0.429,1.531,-0.035288
0.429,1.592,-0.033648
0.429,1.653,-0.033008
0.429,1.714,-0.032960
0.429,1.776,-0.028960
0.429,1.837,-0.027000
0.429,1.898,-0.023464
0.429,1.959,-0.020504
0.429,2.020,-0.017872
0.429,2.082,-0.015336
0.429,2.143,-0.012448
0.429,2.204,-0.009864
0.429,2.265,-0.006768
0.429,2.327,-0.005472
0.429,2.388,-0.003624
0.429,2.449,-0.002320
0.429,2.510,-0.000904
0.429,2.571,0.000584
0.429,2.633,0.002152
0.429,2.694,0.004192
0.429,2.755,0.006336
0.429,2.816,0.008808
0.429,2.878,0.010816
0.429,2.939,0.012440
0.429,3.000,0.013544
0.490,0.000,0.038728
0.490,0.061,0.038432
0.490,0.122,0.038864
0.490,0.184,0.039672
0.490,0.245,0.038920
0.490,0.306,0.038296
0.490,0.367,0.038864
0.490,0.429,0.039592
0.490,0.490,0.039336
0.490,0.551,0.039760
0.490,0.612,0.039064
0.490,0.673,0.039368
0.490,0.735,0.039400
0.490,0.796,0.039888
0.490,0.857,0.040008
0.490,0.918,0.040144
0.490,0.980,0.038464
0.490,1.041,0.036168
0.490,1.102,0.034248
0.490,1.163,0.032424
0.490,1.224,0.030752
0.490,1.286,0.029600
0.490,1.347,0.028800
0.490,1.408,0.027496
0.490,1.469,0.026504
0.490,1.531,0.025184
0.490,1.592,0.023728
0.490,1.653,0.022168
0.490,1.714,0.021520
0.490,1.776,0.020728
0.490,1.837,0.019320
0.490,1.898,0.019928
0.490,1.959,0.018144
0.490,2.020,0.019168
0.490,2.082,0.020152
0.490,2.143,0.021168
0.490,2.204,0.021864
0.490,2.265,0.022376
0.490,2.327,0.023768
0.490,2.388,0.023424
0.490,2.449,0.023224
0.490,2.510,0.025088
0.490,2.571,0.025616
0.490,2.633,0.026512
0.490,2.694,0.027032
0.490,2.755,0.027736
0.490,2.816,0.028424
0.490,2.878,0.029296
0.490,2.939,0.030304
0.490,3.000,0.030328
0.551,0.000,0.121944
0.551,0.061,0.120088
0.551,0.122,0.119192
0.551,0.184,0.117984
0.551,0.245,0.116800
0.551,0.306,0.115008
0.551,0.367,0.113336
0.551,0.429,0.113344
0.551,0.490,0.111600
0.551,0.551,0.110536
0.551,0.612,0.109064
0.551,0.673,0.108832
0.551,0.735,0.107696
0.551,0.796,0.107208
0.551,0.857,0.106296
0.551,0.918,0.104488
0.551,0.980,0.102784
0.551,1.041,0.101368
0.551,1.102,0.100224
0.551,1.163,0.095784
0.551,1.224,0.092664
0.551,1.286,0.089160
0.551,1.347,0.085720
0.551,1.408,0.083104
0.551,1.469,0.079832
0.551,1.531,0.077704
0.551,1.592,0.074032
0.551,1.653,0.071376
0.551,1.714,0.069112
0.551,1.776,0.067248
0.551,1.837,0.064472
0.551,1.898,0.062392
0.551,1.959,0.060584
0.551,2.020,0.057456
0.551,2.082,0.055784
0.551,2.143,0.054824
0.551,2.204,0.052856
0.551,2.265,0.051552
0.551,2.327,0.051512
0.551,2.388,0.050928
0.551,2.449,0.051184
0.551,2.510,0.050456
0.551,2.571,0.049240
0.551,2.633,0.048800
0.551,2.694,0.047928
0.551,2.755,0.047632
0.551,2.816,0.046936
0.551,2.878,0.047104
0.551,2.939,0.046640
0.551,3.000,0.047088
0.612,0.000,0.189632
0.612,0.061,0.187048
0.612,0.122,0.185120
0.612,0.184,0.183480
0.612,0.245,0.180864
0.612,0.306,0.178408
0.612,0.367,0.174928
0.612,0.429,0.173560
0.612,0.490,0.170512
0.612,0.551,0.168400
0.612,0.612,0.167256
0.612,0.673,0.164560
0.612,0.735,0.162160
0.612,0.796,0.160312
0.612,0.857,0.158568
0.612,0.918,0.155768
0.612,0.980,0.153480
0.612,1.041,0.151928
0.612,1.102,0.149560
0.612,1.163,0.147648
0.612,1.224,0.147112
0.612,1.286,0.141464
0.612,1.347,0.136496
0.612,1.408,0.131448
0.612,1.469,0.126032
0.612,1.531,0.121872
0.612,1.592,0.117976
0.612,1.653,0.114256
0.612,1.714,0.110008
0.612,1.776,0.106248
0.612,1.837,0.101616
0.612,1.898,0.097400
0.612,1.959,0.094600
0.612,2.020,0.092824
0.612,2.082,0.090224
0.612,2.143,0.086576
0.612,2.204,0.084264
0.612,2.265,0.081832
0.612,2.327,0.079520
0.612,2.388,0.077008
0.612,2.449,0.074664
0.612,2.510,0.072648
0.612,2.571,0.070792
0.612,2.633,0.069184
0.612,2.694,0.067608
0.612,2.755,0.067088
0.612,2.816,0.066024
0.612,2.878,0.064512
0.612,2.939,0.063736
0.612,3.000,0.062112
0.673,0.000,0.239856
0.673,0.061,0.238656
0.673,0.122,0.235912
0.673,0.184,0.233176
0.673,0.245,0.228360
0.673,0.306,0.224824
0.673,0.367,0.222704
0.673,0.429,0.219736
0.673,0.490,0.216312
0.673,0.551,0.212760
0.673,0.612,0.209096
0.673,0.673,0.205320
0.673,0.735,0.203200
0.673,0.796,0.200408
0.673,0.857,0.198464
0.673,0.918,0.195416
0.673,0.980,0.192536
0.673,1.041,0.189576
0.673,1.102,0.186936
0.673,1.163,0.184072
0.673,1.224,0.182792
0.673,1.286,0.180136
0.673,1.347,0.177416
0.673,1.408,0.171304
0.673,1.469,0.164480
0.673,1.531,0.158928
0.673,1.592,0.152656
0.673,1.653,0.146464
0.673,1.714,0.142064
0.673,1.776,0.136640
0.673,1.837,0.132440
0.673,1.898,0.128120
0.673,1.959,0.124024
0.673,2.020,0.119592
0.673,2.082,0.115632
0.673,2.143,0.113176
0.673,2.204,0.110136
0.673,2.265,0.106408
0.673,2.327,0.103088
0.673,2.388,0.099288
0.673,2.449,0.096264
0.673,2.510,0.094080
0.673,2.571,0.091536
0.673,2.633,0.088888
0.673,2.694,0.086784
0.673,2.755,0.083928
0.673,2.816,0.082056
0.673,2.878,0.081368
0.673,2.939,0.078912
0.673,3.000,0.077624
0.735,0.000,0.277808
0.735,0.061,0.274080
0.735,0.122,0.269400
0.735,0.184,0.265360
0.735,0.245,0.260624
0.735,0.306,0.257528
0.735,0.367,0.253992
0.735,0.429,0.249872
0.735,0.490,0.244872
0.735,0.551,0.242080
0.735,0.612,0.239016
0.735,0.673,0.235128
0.735,0.735,0.231552
0.735,0.796,0.227960
0.735,0.857,0.224760
0.735,0.918,0.221312
0.735,0.980,0.217896
0.735,1.041,0.215616
0.735,1.102,0.212064
0.735,1.163,0.208584
0.735,1.224,0.206064
0.735,1.286,0.203528
0.735,1.347,0.201208
0.735,1.408,0.197816
0.735,1.469,0.194480
0.735,1.531,0.186472
0.735,1.592,0.179488
0.735,1.653,0.172272
0.735,1.714,0.166216
0.735,1.776,0.160904
0.735,1.837,0.155928
0.735,1.898,0.150448
0.735,1.959,0.144888
0.735,2.020,0.140808
0.735,2.082,0.136704
0.735,2.143,0.133160
0.735,2.204,0.128968
0.735,2.265,0.126392
0.735,2.327,0.122056
0.735,2.388,0.117416
0.735,2.449,0.113656
0.735,2.510,0.110656
0.735,2.571,0.107424
0.735,2.633,0.104512
0.735,2.694,0.102096
0.735,2.755,0.099528
0.735,2.816,0.096864
0.735,2.878,0.094144
0.735,2.939,0.091576
0.735,3.000,0.089120
0.796,0.000,0.298744
0.796,0.061,0.293488
0.796,0.122,0.288736
0.796,0.184,0.284288
0.796,0.245,0.279816
0.796,0.306,0.275608
0.796,0.367,0.270688
0.796,0.429,0.267120
0.796,0.490,0.262856
0.796,0.551,0.259344
0.796,0.612,0.254840
0.796,0.673,0.250312
0.796,0.735,0.246104
0.796,0.796,0.242824
0.796,0.857,0.238848
0.796,0.918,0.235584
0.796,0.980,0.232632
0.796,1.041,0.228880
0.796,1.102,0.225168
0.796,1.163,0.221656
0.796,1.224,0.218608
0.796,1.286,0.216272
0.796,1.347,0.213936
0.796,1.408,0.210288
0.796,1.469,0.206688
0.796,1.531,0.202560
0.796,1.592,0.197760
0.796,1.653,0.191400
0.796,1.714,0.185072
0.796,1.776,0.179032
0.796,1.837,0.173688
0.796,1.898,0.167392
0.796,1.959,0.161648
0.796,2.020,0.156152
0.796,2.082,0.151056
0.796,2.143,0.146320
0.796,2.204,0.140480
0.796,2.265,0.135320
0.796,2.327,0.131480
0.796,2.388,0.127120
0.796,2.449,0.124016
0.796,2.510,0.120064
0.796,2.571,0.116160
0.796,2.633,0.112320
0.796,2.694,0.109296
0.796,2.755,0.106888
0.796,2.816,0.103680
0.796,2.878,0.100504
0.796,2.939,0.098120
0.796,3.000,0.095640
0.857,0.000,0.308176
0.857,0.061,0.302368
0.857,0.122,0.296952
0.857,0.184,0.292144
0.857,0.245,0.286992
0.857,0.306,0.282192
0.857,0.367,0.277736
0.857,0.429,0.271768
0.857,0.490,0.266760
0.857,0.551,0.261920
0.857,0.612,0.259104
0.857,0.673,0.254920
0.857,0.735,0.250416
0.857,0.796,0.246824
0.857,0.857,0.242720
0.857,0.918,0.238040
0.857,0.980,0.233440
0.857,1.041,0.229960
0.857,1.102,0.227240
0.857,1.163,0.223016
0.857,1.224,0.219736
0.857,1.286,0.216376
0.857,1.347,0.213256
0.857,1.408,0.210840
0.857,1.469,0.207536
0.857,1.531,0.204360
0.857,1.592,0.200368
0.857,1.653,0.197368
0.857,1.714,0.196256
0.857,1.776,0.189688
0.857,1.837,0.183232
0.857,1.898,0.178224
0.857,1.959,0.170736
0.857,2.020,0.165272
0.857,2.082,0.160400
0.857,2.143,0.155216
0.857,2.204,0.150616
0.857,2.265,0.145024
0.857,2.327,0.140168
0.857,2.388,0.134672
0.857,2.449,0.130952
0.857,2.510,0.126528
0.857,2.571,0.122840
0.857,2.633,0.119544
0.857,2.694,0.115880
0.857,2.755,0.112944
0.857,2.816,0.109584
0.857,2.878,0.106040
0.857,2.939,0.103160
0.857,3.000,0.101112
0.918,0.000,0.302608
0.918,0.061,0.297768
0.918,0.122,0.291808
0.918,0.184,0.286008
0.918,0.245,0.279536
0.918,0.306,0.274368
0.918,0.367,0.270816
0.918,0.429,0.265720
0.918,0.490,0.261536
0.918,0.551,0.257776
0.918,0.612,0.253576
0.918,0.673,0.249264
0.918,0.735,0.244792
0.918,0.796,0.240368
0.918,0.857,0.237288
0.918,0.918,0.233888
0.918,0.980,0.229352
0.918,1.041,0.225416
0.918,1.102,0.221856
0.918,1.163,0.218352
0.918,1.224,0.214552
0.918,1.286,0.210592
0.918,1.347,0.208480
0.918,1.408,0.205496
0.918,1.469,0.202296
0.918,1.531,0.198928
0.918,1.592,0.194592
0.918,1.653,0.193016
0.918,1.714,0.191216
0.918,1.776,0.188760
0.918,1.837,0.186144
0.918,1.898,0.179496
0.918,1.959,0.174176
0.918,2.020,0.169048
0.918,2.082,0.162944
0.918,2.143,0.158056
0.918,2.204,0.152816
0.918,2.265,0.147904
0.918,2.327,0.143544
0.918,2.388,0.139328
0.918,2.449,0.134568
0.918,2.510,0.129968
0.918,2.571,0.126280
0.918,2.633,0.122616
0.918,2.694,0.118312
0.918,2.755,0.114952
0.918,2.816,0.111872
0.918,2.878,0.108480
0.918,2.939,0.106488
0.918,3.000,0.104224
0.980,0.000,0.286392
0.980,0.061,0.281144
0.980,0.122,0.275592
0.980,0.184,0.270680
0.980,0.245,0.264088
0.980,0.306,0.259064
0.980,0.367,0.254968
0.980,0.429,0.249328
0.980,0.490,0.244944
0.980,0.551,0.241272
0.980,0.612,0.238216
0.980,0.673,0.233616
0.980,0.735,0.230464
0.980,0.796,0.226448
0.980,0.857,0.223688
0.980,0.918,0.219800
0.980,0.980,0.216384
0.980,1.041,0.213248
0.980,1.102,0.210464
0.980,1.163,0.206376
0.980,1.224,0.201728
0.980,1.286,0.199160
0.980,1.347,0.197280
0.980,1.408,0.193632
0.980,1.469,0.190672
0.980,1.531,0.188160
0.980,1.592,0.184704
0.980,1.653,0.182744
0.980,1.714,0.179864
0.980,1.776,0.177224
0.980,1.837,0.175456
0.980,1.898,0.174168
0.980,1.959,0.172952
0.980,2.020,0.165784
0.980,2.082,0.160152
0.980,2.143,0.156856
0.980,2.204,0.150840
0.980,2.265,0.145872
0.980,2.327,0.141344
0.980,2.388,0.136744
0.980,2.449,0.132352
0.980,2.510,0.128400
0.980,2.571,0.125040
0.980,2.633,0.121008
0.980,2.694,0.117824
0.980,2.755,0.114896
0.980,2.816,0.112240
0.980,2.878,0.109224
0.980,2.939,0.106256
0.980,3.000,0.103928
1.041,0.000,0.260352
1.041,0.061,0.255408
1.041,0.122,0.250384
1.041,0.184,0.245920
1.041,0.245,0.239720
1.041,0.306,0.235568
1.041,0.367,0.230936
1.041,0.429,0.226792
1.041,0.490,0.223168
1.041,0.551,0.219264
1.041,0.612,0.216008
1.041,0.673,0.212304
1.041,0.735,0.209544
1.041,0.796,0.206056
1.041,0.857,0.203120
1.041,0.918,0.199496
1.041,0.980,0.196176
1.041,1.041,0.192632
1.041,1.102,0.190040
1.041,1.163,0.187432
1.041,1.224,0.184112
1.041,1.286,0.181088
1.041,1.347,0.178880
1.041,1.408,0.176960
1.041,1.469,0.175704
1.041,1.531,0.173040
1.041,1.592,0.170032
1.041,1.653,0.166992
1.041,1.714,0.165720
1.041,1.776,0.163128
1.041,1.837,0.160720
1.041,1.898,0.158856
1.041,1.959,0.156976
1.041,2.020,0.154032
1.041,2.082,0.151336
1.041,2.143,0.147848
1.041,2.204,0.144280
1.041,2.265,0.139560
1.041,2.327,0.134632
1.041,2.388,0.130376
1.041,2.449,0.126272
1.041,2.510,0.122608
1.041,2.571,0.119768
1.041,2.633,0.116880
1.041,2.694,0.114200
1.041,2.755,0.110216
1.041,2.816,0.107960
1.041,2.878,0.104776
1.041,2.939,0.102960
1.041,3.000,0.100672
1.102,0.000,0.226760
1.102,0.061,0.222512
1.102,0.122,0.219624
1.102,0.184,0.215848
1.102,0.245,0.209928
1.102,0.306,0.207080
1.102,0.367,0.202960
1.102,0.429,0.199824
1.102,0.490,0.197976
1.102,0.551,0.193776
1.102,0.612,0.190144
1.102,0.673,0.186384
1.102,0.735,0.182272
1.102,0.796,0.178792
1.102,0.857,0.175952
1.102,0.918,0.172680
1.102,0.980,0.170448
1.102,1.041,0.168368
1.102,1.102,0.165728
1.102,1.163,0.164624
1.102,1.224,0.162008
1.102,1.286,0.158904
1.102,1.347,0.157496
1.102,1.408,0.155512
1.102,1.469,0.154176
1.102,1.531,0.152600
1.102,1.592,0.151016
1.102,1.653,0.148880
1.102,1.714,0.147240
1.102,1.776,0.145744
1.102,1.837,0.143456
1.102,1.898,0.141320
1.102,1.959,0.139752
1.102,2.020,0.136024
1.102,2.082,0.133160
1.102,2.143,0.132672
1.102,2.204,0.131352
1.102,2.265,0.127272
1.102,2.327,0.123336
1.102,2.388,0.120072
1.102,2.449,0.116784
1.102,2.510,0.114640
1.102,2.571,0.111080
1.102,2.633,0.107200
1.102,2.694,0.104056
1.102,2.755,0.102176
1.102,2.816,0.100200
1.102,2.878,0.097664
1.102,2.939,0.096392
1.102,3.000,0.093776
1.163,0.000,0.191264
1.163,0.061,0.186568
1.163,0.122,0.182624
1.163,0.184,0.179552
1.163,0.245,0.176352
1.163,0.306,0.173608
1.163,0.367,0.171312
1.163,0.429,0.167728
1.163,0.490,0.164360
1.163,0.551,0.161424
1.163,0.612,0.157280
1.163,0.673,0.154776
1.163,0.735,0.151376
1.163,0.796,0.150328
1.163,0.857,0.148288
1.163,0.918,0.144944
1.163,0.980,0.143632
1.163,1.041,0.141560
1.163,1.102,0.139904
1.163,1.163,0.139752
1.163,1.224,0.137872
1.163,1.286,0.135168
1.163,1.347,0.133616
1.163,1.408,0.133080
1.163,1.469,0.131400
1.163,1.531,0.128616
1.163,1.592,0.125912
1.163,1.653,0.125232
1.163,1.714,0.125168
1.163,1.776,0.123600
1.163,1.837,0.122408
1.163,1.898,0.121176
1.163,1.959,0.120144
1.163,2.020,0.117128
1.163,2.082,0.114408
1.163,2.143,0.113168
1.163,2.204,0.110944
1.163,2.265,0.110400
1.163,2.327,0.109104
1.163,2.388,0.105688
1.163,2.449,0.102536
1.163,2.510,0.100184
1.163,2.571,0.097208
1.163,2.633,0.095624
1.163,2.694,0.094560
1.163,2.755,0.092096
1.163,2.816,0.090992
1.163,2.878,0.088984
1.163,2.939,0.086416
1.163,3.000,0.085752
1.224,0.000,0.150816
1.224,0.061,0.147688
1.224,0.122,0.144792
1.224,0.184,0.141872
1.224,0.245,0.139792
1.224,0.306,0.137392
1.224,0.367,0.134816
1.224,0.429,0.130296
1.224,0.490,0.128848
1.224,0.551,0.125344
1.224,0.612,0.122736
1.224,0.673,0.121240
1.224,0.735,0.120928
1.224,0.796,0.119912
1.224,0.857,0.117856
1.224,0.918,0.117616
1.224,0.980,0.116488
1.224,1.041,0.113808
1.224,1.102,0.111808
1.224,1.163,0.110000
1.224,1.224,0.109144
1.224,1.286,0.107344
1.224,1.347,0.105792
1.224,1.408,0.105752
1.224,1.469,0.103352
1.224,1.531,0.103744
1.224,1.592,0.102832
1.224,1.653,0.099992
1.224,1.714,0.098744
1.224,1.776,0.098032
1.224,1.837,0.097672
1.224,1.898,0.096632
1.224,1.959,0.096512
1.224,2.020,0.096400
1.224,2.082,0.095392
1.224,2.143,0.095328
1.224,2.204,0.093616
1.224,2.265,0.090616
1.224,2.327,0.089504
1.224,2.388,0.088624
1.224,2.449,0.088328
1.224,2.510,0.087104
1.224,2.571,0.084056
1.224,2.633,0.081968
1.224,2.694,0.079904
1.224,2.755,0.079512
1.224,2.816,0.079240
1.224,2.878,0.078072
1.224,2.939,0.077680
1.224,3.000,0.077416
1.286,0.000,0.108952
1.286,0.061,0.106800
1.286,0.122,0.105456
1.286,0.184,0.102760
1.286,0.245,0.100672
1.286,0.306,0.099504
1.286,0.367,0.097248
1.286,0.429,0.095776
1.286,0.490,0.094064
1.286,0.551,0.091608
1.286,0.612,0.089680
1.286,0.673,0.087720
1.286,0.735,0.088736
1.286,0.796,0.088392
1.286,0.857,0.087736
1.286,0.918,0.086568
1.286,0.980,0.085184
1.286,1.041,0.083800
1.286,1.102,0.082152
1.286,1.163,0.082672
1.286,1.224,0.080608
1.286,1.286,0.078360
1.286,1.347,0.077080
1.286,1.408,0.076568
1.286,1.469,0.077008
1.286,1.531,0.075736
1.286,1.592,0.074672
1.286,1.653,0.076176
1.286,1.714,0.076176
1.286,1.776,0.076272
1.286,1.837,0.074928
1.286,1.898,0.075176
1.286,1.959,0.075760
1.286,2.020,0.073840
1.286,2.082,0.073792
1.286,2.143,0.074312
1.286,2.204,0.074568
1.286,2.265,0.073232
1.286,2.327,0.072920
1.286,2.388,0.072216
1.286,2.449,0.070624
1.286,2.510,0.069240
1.286,2.571,0.069320
1.286,2.633,0.068368
1.286,2.694,0.066704
1.286,2.755,0.066200
1.286,2.816,0.065136
1.286,2.878,0.065968
1.286,2.939,0.065920
1.286,3.000,0.064016
1.347,0.000,0.067328
1.347,0.061,0.066448
1.347,0.122,0.066160
1.347,0.184,0.063752
1.347,0.245,0.063496
1.347,0.306,0.063320
1.347,0.367,0.061400
1.347,0.429,0.061240
1.347,0.490,0.059992
1.347,0.551,0.059024
1.347,0.612,0.058176
1.347,0.673,0.057680
1.347,0.735,0.057920
1.347,0.796,0.057376
1.347,0.857,0.056544
1.347,0.918,0.055560
1.347,0.980,0.055704
1.347,1.041,0.054936
1.347,1.102,0.054120
1.347,1.163,0.053424
1.347,1.224,0.051384
1.347,1.286,0.050944
1.347,1.347,0.051688
1.347,1.408,0.051408
1.347,1.469,0.051112
1.347,1.531,0.051808
1.347,1.592,0.051576
1.347,1.653,0.052968
1.347,1.714,0.052104
1.347,1.776,0.053464
1.347,1.837,0.052840
1.347,1.898,0.053376
1.347,1.959,0.054048
1.347,2.020,0.053912
1.347,2.082,0.054488
1.347,2.143,0.054976
1.347,2.204,0.055776
1.347,2.265,0.055288
1.347,2.327,0.053232
1.347,2.388,0.053496
1.347,2.449,0.053720
1.347,2.510,0.053592
1.347,2.571,0.052744
1.347,2.633,0.052464
1.347,2.694,0.052280
1.347,2.755,0.052968
1.347,2.816,0.053376
1.347,2.878,0.052368
1.347,2.939,0.051840
1.347,3.000,0.051984
1.408,0.000,0.029120
1.408,0.061,0.029416
1.408,0.122,0.028536
1.408,0.184,0.028080
1.408,0.245,0.027376
1.408,0.306,0.029400
1.408,0.367,0.029152
1.408,0.429,0.029136
1.408,0.490,0.027064
1.408,0.551,0.027688
1.408,0.612,0.027552
1.408,0.673,0.027248
1.408,0.735,0.028144
1.408,0.796,0.028128
1.408,0.857,0.027968
1.408,0.918,0.027424
1.408,0.980,0.028520
1.408,1.041,0.027648
1.408,1.102,0.027416
1.408,1.163,0.027832
1.408,1.224,0.028440
1.408,1.286,0.026496
1.408,1.347,0.026264
1.408,1.408,0.029368
1.408,1.469,0.029176
1.408,1.531,0.029488
1.408,1.592,0.029488
1.408,1.653,0.030680
1.408,1.714,0.030792
1.408,1.776,0.031400
1.408,1.837,0.030896
1.408,1.898,0.030880
1.408,1.959,0.033088
1.408,2.020,0.033064
1.408,2.082,0.034552
1.408,2.143,0.036904
1.408,2.204,0.036072
1.408,2.265,0.037288
1.408,2.327,0.037888
1.408,2.388,0.037880
1.408,2.449,0.037568
1.408,2.510,0.036904
1.408,2.571,0.036824
1.408,2.633,0.037632
1.408,2.694,0.038112
1.408,2.755,0.038360
1.408,2.816,0.038744
1.408,2.878,0.040248
1.408,2.939,0.040840
1.408,3.000,0.041056
1.469,0.000,-0.006008
1.469,0.061,-0.005280
1.469,0.122,-0.003592
1.469,0.184,-0.001496
1.469,0.245,-0.001784
1.469,0.306,-0.000888
1.469,0.367,-0.002024
1.469,0.429,-0.002536
1.469,0.490,-0.002728
1.469,0.551,-0.001736
1.469,0.612,-0.001888
1.469,0.673,-0.002224
1.469,0.735,-0.001488
1.469,0.796,0.000256
1.469,0.857,0.001688
1.469,0.918,0.001544
1.469,0.980,0.003928
1.469,1.041,0.004792
1.469,1.102,0.005320
1.469,1.163,0.005600
1.469,1.224,0.004704
1.469,1.286,0.005496
1.469,1.347,0.005840
1.469,1.408,0.007288
1.469,1.469,0.007704
1.469,1.531,0.008472
1.469,1.592,0.009024
1.469,1.653,0.009632
1.469,1.714,0.010680
1.469,1.776,0.013104
1.469,1.837,0.013584
1.469,1.898,0.013952
1.469,1.959,0.014696
1.469,2.020,0.015552
1.469,2.082,0.016840
1.469,2.143,0.018120
1.469,2.204,0.019584
1.469,2.265,0.021016
1.469,2.327,0.021600
1.469,2.388,0.022192
1.469,2.449,0.023480
1.469,2.510,0.024448
1.469,2.571,0.024448
1.469,2.633,0.024840
1.469,2.694,0.026088
1.469,2.755,0.025488
1.469,2.816,0.026656
1.469,2.878,0.028448
1.469,2.939,0.028232
1.469,3.000,0.029472
1.531,0.000,-0.036976
1.531,0.061,-0.035360
1.531,0.122,-0.033256
1.531,0.184,-0.031136
1.531,0.245,-0.032688
1.531,0.306,-0.030456
1.531,0.367,-0.028856
1.531,0.429,-0.028008
1.531,0.490,-0.026280
1.531,0.551,-0.025928
1.531,0.612,-0.025736
1.531,0.673,-0.025256
1.531,0.735,-0.024352
1.531,0.796,-0.023088
1.531,0.857,-0.021976
1.531,0.918,-0.020144
1.531,0.980,-0.016736
1.531,1.041,-0.015632
1.531,1.102,-0.016168
1.531,1.163,-0.013984
1.531,1.224,-0.014872
1.531,1.286,-0.014272
1.531,1.347,-0.012912
1.531,1.408,-0.012128
1.531,1.469,-0.010616
1.531,1.531,-0.010224
1.531,1.592,-0.009608
1.531,1.653,-0.007448
1.531,1.714,-0.005160
1.531,1.776,-0.004072
1.531,1.837,-0.003928
1.531,1.898,-0.002384
1.531,1.959,-0.000416
1.531,2.020,0.000712
1.531,2.082,0.002936
1.531,2.143,0.004184
1.531,2.204,0.005488
1.531,2.265,0.006800
1.531,2.327,0.007760
1.531,2.388,0.009448
1.531,2.449,0.011152
1.531,2.510,0.011976
1.531,2.571,0.012480
1.531,2.633,0.014192
1.531,2.694,0.015136
1.531,2.755,0.014496
1.531,2.816,0.015192
1.531,2.878,0.016688
1.531,2.939,0.018216
1.531,3.000,0.019104
1.592,0.000,-0.063968
1.592,0.061,-0.060432
1.592,0.122,-0.058240
1.592,0.184,-0.057624
1.592,0.245,-0.057168
1.592,0.306,-0.054680
1.592,0.367,-0.052784
1.592,0.429,-0.049400
1.592,0.490,-0.047016
1.592,0.551,-0.046392
1.592,0.612,-0.043400
1.592,0.673,-0.043624
1.592,0.735,-0.042784
1.592,0.796,-0.041504
1.592,0.857,-0.040400
1.592,0.918,-0.037808
1.592,0.980,-0.036304
1.592,1.041,-0.034368
1.592,1.102,-0.032224
1.592,1.163,-0.030376
1.592,1.224,-0.030400
1.592,1.286,-0.029640
1.592,1.347,-0.028096
1.592,1.408,-0.028352
1.592,1.469,-0.025792
1.592,1.531,-0.024008
1.592,1.592,-0.021688
1.592,1.653,-0.019984
1.592,1.714,-0.017808
1.592,1.776,-0.015288
1.592,1.837,-0.015280
1.592,1.898,-0.014120
1.592,1.959,-0.012416
1.592,2.020,-0.011904
1.592,2.082,-0.010760
1.592,2.143,-0.008344
1.592,2.204,-0.006320
1.592,2.265,-0.003872
1.592,2.327,-0.003032
1.592,2.388,-0.001936
1.592,2.449,-0.000168
1.592,2.510,0.001744
1.592,2.571,0.001984
1.592,2.633,0.002488
1.592,2.694,0.003528
1.592,2.755,0.004952
1.592,2.816,0.006608
1.592,2.878,0.008904
1.592,2.939,0.010256
1.592,3.000,0.010592
1.653,0.000,-0.084888
1.653,0.061,-0.082632
1.653,0.122,-0.080504
1.653,0.184,-0.077552
1.653,0.245,-0.076272
1.653,0.306,-0.072648
1.653,0.367,-0.070848
1.653,0.429,-0.068192
1.653,0.490,-0.065712
1.653,0.551,-0.063672
1.653,0.612,-0.061360
1.653,0.673,-0.060824
1.653,0.735,-0.057872
1.653,0.796,-0.056008
1.653,0.857,-0.053824
1.653,0.918,-0.051800
1.653,0.980,-0.048768
1.653,1.041,-0.048632
1.653,1.102,-0.047632
1.653,1.163,-0.046104
1.653,1.224,-0.043216
1.653,1.286,-0.040880
1.653,1.347,-0.038280
1.653,1.408,-0.036120
1.653,1.469,-0.035456
1.653,1.531,-0.034776
1.653,1.592,-0.032696
1.653,1.653,-0.029192
1.653,1.714,-0.027496
1.653,1.776,-0.025688
1.653,1.837,-0.024384
1.653,1.898,-0.022584
1.653,1.959,-0.022088
1.653,2.020,-0.020560
1.653,2.082,-0.019528
1.653,2.143,-0.017128
1.653,2.204,-0.014176
1.653,2.265,-0.012072
1.653,2.327,-0.011080
1.653,2.388,-0.009552
1.653,2.449,-0.008240
1.653,2.510,-0.007112
1.653,2.571,-0.006064
1.653,2.633,-0.004632
1.653,2.694,-0.002944
1.653,2.755,-0.001800
1.653,2.816,-0.000128
1.653,2.878,0.001912
1.653,2.939,0.004576
1.653,3.000,0.004736
1.714,0.000,-0.101544
1.714,0.061,-0.098928
1.714,0.122,-0.094632
1.714,0.184,-0.091440
1.714,0.245,-0.089176
1.714,0.306,-0.086288
1.714,0.367,-0.084648
1.714,0.429,-0.081600
1.714,0.490,-0.079592
1.714,0.551,-0.076096
1.714,0.612,-0.073320
1.714,0.673,-0.072296
1.714,0.735,-0.070928
1.714,0.796,-0.066896
1.714,0.857,-0.064192
1.714,0.918,-0.061784
1.714,0.980,-0.058648
1.714,1.041,-0.057664
1.714,1.102,-0.055688
1.714,1.163,-0.053600
1.714,1.224,-0.051448
1.714,1.286,-0.048656
1.714,1.347,-0.045904
1.714,1.408,-0.044496
1.714,1.469,-0.042704
1.714,1.531,-0.040952
1.714,1.592,-0.039304
1.714,1.653,-0.036544
1.714,1.714,-0.035432
1.714,1.776,-0.032848
1.714,1.837,-0.031320
1.714,1.898,-0.029192
1.714,1.959,-0.027256
1.714,2.020,-0.025832
1.714,2.082,-0.023296
1.714,2.143,-0.021728
1.714,2.204,-0.020496
1.714,2.265,-0.017688
1.714,2.327,-0.016944
1.714,2.388,-0.015240
1.714,2.449,-0.014088
1.714,2.510,-0.012304
1.714,2.571,-0.010696
1.714,2.633,-0.010648
1.714,2.694,-0.009656
1.714,2.755,-0.007352
1.714,2.816,-0.003984
1.714,2.878,-0.002024
1.714,2.939,0.000760
1.714,3.000,-0.000128
1.776,0.000,-0.113960
1.776,0.061,-0.109744
1.776,0.122,-0.106576
1.776,0.184,-0.102576
1.776,0.245,-0.099704
1.776,0.306,-0.095608
1.776,0.367,-0.093160
1.776,0.429,-0.088960
1.776,0.490,-0.087120
1.776,0.551,-0.085040
1.776,0.612,-0.082568
1.776,0.673,-0.079832
1.776,0.735,-0.075960
1.776,0.796,-0.073184
1.776,0.857,-0.070904
1.776,0.918,-0.069240
1.776,0.980,-0.064880
1.776,1.041,-0.063136
1.776,1.102,-0.061440
1.776,1.163,-0.058920
1.776,1.224,-0.056168
1.776,1.286,-0.054008
1.776,1.347,-0.051368
1.776,1.408,-0.049576
1.776,1.469,-0.047248
1.776,1.531,-0.044816
1.776,1.592,-0.043536
1.776,1.653,-0.040176
1.776,1.714,-0.038400
1.776,1.776,-0.036640
1.776,1.837,-0.036056
1.776,1.898,-0.032992
1.776,1.959,-0.029216
1.776,2.020,-0.029432
1.776,2.082,-0.027024
1.776,2.143,-0.024960
1.776,2.204,-0.023328
1.776,2.265,-0.022368
1.776,2.327,-0.020528
1.776,2.388,-0.018968
1.776,2.449,-0.017184
1.776,2.510,-0.015664
1.776,2.571,-0.014472
1.776,2.633,-0.014056
1.776,2.694,-0.011056
1.776,2.755,-0.009576
1.776,2.816,-0.008376
1.776,2.878,-0.006280
1.776,2.939,-0.003776
1.776,3.000,-0.001600
1.837,0.000,-0.117024
1.837,0.061,-0.113720
1.837,0.122,-0.110664
1.837,0.184,-0.107376
1.837,0.245,-0.104008
1.837,0.306,-0.100560
1.837,0.367,-0.098440
1.837,0.429,-0.094664
1.837,0.490,-0.091240
1.837,0.551,-0.088008
1.837,0.612,-0.086328
1.837,0.673,-0.084072
1.837,0.735,-0.081056
1.837,0.796,-0.077176
1.837,0.857,-0.072728
1.837,0.918,-0.070616
1.837,0.980,-0.067744
1.837,1.041,-0.066800
1.837,1.102,-0.064144
1.837,1.163,-0.062328
1.837,1.224,-0.059608
1.837,1.286,-0.056064
1.837,1.347,-0.054120
1.837,1.408,-0.051608
1.837,1.469,-0.049544
1.837,1.531,-0.046576
1.837,1.592,-0.044336
1.837,1.653,-0.040736
1.837,1.714,-0.038344
1.837,1.776,-0.037272
1.837,1.837,-0.035440
1.837,1.898,-0.035000
1.837,1.959,-0.033096
1.837,2.020,-0.032800
1.837,2.082,-0.031088
1.837,2.143,-0.028528
1.837,2.204,-0.026536
1.837,2.265,-0.025328
1.837,2.327,-0.023664
1.837,2.388,-0.022128
1.837,2.449,-0.020128
1.837,2.510,-0.018240
1.837,2.571,-0.015952
1.837,2.633,-0.014216
1.837,2.694,-0.012888
1.837,2.755,-0.010672
1.837,2.816,-0.008512
1.837,2.878,-0.006680
1.837,2.939,-0.004544
1.837,3.000,-0.003648
1.898,0.000,-0.116416
1.898,0.061,-0.112976
1.898,0.122,-0.110232
1.898,0.184,-0.106584
1.898,0.245,-0.104376
1.898,0.306,-0.102488
1.898,0.367,-0.098680
1.898,0.429,-0.095352
1.898,0.490,-0.093240
1.898,0.551,-0.089008
1.898,0.612,-0.086056
1.898,0.673,-0.082952
1.898,0.735,-0.080480
1.898,0.796,-0.078568
1.898,0.857,-0.074336
1.898,0.918,-0.071600
1.898,0.980,-0.067648
1.898,1.041,-0.065888
1.898,1.102,-0.063096
1.898,1.163,-0.061296
1.898,1.224,-0.058808
1.898,1.286,-0.055472
1.898,1.347,-0.054440
1.898,1.408,-0.051712
1.898,1.469,-0.048960
1.898,1.531,-0.045984
1.898,1.592,-0.044576
1.898,1.653,-0.041072
1.898,1.714,-0.038528
1.898,1.776,-0.036584
1.898,1.837,-0.036728
1.898,1.898,-0.036096
1.898,1.959,-0.034304
1.898,2.020,-0.031792
1.898,2.082,-0.029376
1.898,2.143,-0.029448
1.898,2.204,-0.027184
1.898,2.265,-0.025280
1.898,2.327,-0.024008
1.898,2.388,-0.021696
1.898,2.449,-0.019176
1.898,2.510,-0.018600
1.898,2.571,-0.016312
1.898,2.633,-0.014448
1.898,2.694,-0.012512
1.898,2.755,-0.010168
1.898,2.816,-0.008456
1.898,2.878,-0.006648
1.898,2.939,-0.003992
1.898,3.000,-0.003272
1.959,0.000,-0.112224
1.959,0.061,-0.109640
1.959,0.122,-0.106544
1.959,0.184,-0.104080
1.959,0.245,-0.101008
1.959,0.306,-0.100184
1.959,0.367,-0.096952
1.959,0.429,-0.093184
1.959,0.490,-0.088944
1.959,0.551,-0.084872
1.959,0.612,-0.081312
1.959,0.673,-0.078968
1.959,0.735,-0.076616
1.959,0.796,-0.073232
1.959,0.857,-0.071080
1.959,0.918,-0.070832
1.959,0.980,-0.067496
1.959,1.041,-0.064264
1.959,1.102,-0.060768
1.959,1.163,-0.057472
1.959,1.224,-0.056680
1.959,1.286,-0.053864
1.959,1.347,-0.052040
1.959,1.408,-0.049472
1.959,1.469,-0.047248
1.959,1.531,-0.043960
1.959,1.592,-0.040456
1.959,1.653,-0.039552
1.959,1.714,-0.038944
1.959,1.776,-0.036704
1.959,1.837,-0.036152
1.959,1.898,-0.033528
1.959,1.959,-0.031592
1.959,2.020,-0.029944
1.959,2.082,-0.027088
1.959,2.143,-0.026136
1.959,2.204,-0.023248
1.959,2.265,-0.022392
1.959,2.327,-0.020528
1.959,2.388,-0.018344
1.959,2.449,-0.016800
1.959,2.510,-0.015368
1.959,2.571,-0.013512
1.959,2.633,-0.012352
1.959,2.694,-0.010264
1.959,2.755,-0.008048
1.959,2.816,-0.006072
1.959,2.878,-0.004168
1.959,2.939,-0.001968
1.959,3.000,-0.001072
2.020,0.000,-0.104672
2.020,0.061,-0.101472
2.020,0.122,-0.098592
2.020,0.184,-0.096640
2.020,0.245,-0.093896
2.020,0.306,-0.092536
2.020,0.367,-0.089784
2.020,0.429,-0.085144
2.020,0.490,-0.081648
2.020,0.551,-0.078264
2.020,0.612,-0.075960
2.020,0.673,-0.073760
2.020,0.735,-0.072032
2.020,0.796,-0.068448
2.020,0.857,-0.064712
2.020,0.918,-0.060888
2.020,0.980,-0.059328
2.020,1.041,-0.058016
2.020,1.102,-0.055656
2.020,1.163,-0.053560
2.020,1.224,-0.051392
2.020,1.286,-0.049424
2.020,1.347,-0.048720
2.020,1.408,-0.044464
2.020,1.469,-0.044040
2.020,1.531,-0.041672
2.020,1.592,-0.038584
2.020,1.653,-0.036984
2.020,1.714,-0.035224
2.020,1.776,-0.032712
2.020,1.837,-0.031544
2.020,1.898,-0.030360
2.020,1.959,-0.027808
2.020,2.020,-0.025032
2.020,2.082,-0.023136
2.020,2.143,-0.020464
2.020,2.204,-0.017992
2.020,2.265,-0.016592
2.020,2.327,-0.014968
2.020,2.388,-0.013864
2.020,2.449,-0.012032
2.020,2.510,-0.009472
2.020,2.571,-0.009024
2.020,2.633,-0.007584
2.020,2.694,-0.005912
2.020,2.755,-0.005336
2.020,2.816,-0.003400
2.020,2.878,-0.000320
2.020,2.939,0.001120
2.020,3.000,0.002776
2.082,0.000,-0.094752
2.082,0.061,-0.091640
2.082,0.122,-0.088704
2.082,0.184,-0.085904
2.082,0.245,-0.083800
2.082,0.306,-0.082224
2.082,0.367,-0.079216
2.082,0.429,-0.076200
2.082,0.490,-0.072264
2.082,0.551,-0.070288
2.082,0.612,-0.068512
2.082,0.673,-0.066504
2.082,0.735,-0.064208
2.082,0.796,-0.060024
2.082,0.857,-0.056464
2.082,0.918,-0.053656
2.082,0.980,-0.050840
2.082,1.041,-0.049448
2.082,1.102,-0.047136
2.082,1.163,-0.045576
2.082,1.224,-0.044664
2.082,1.286,-0.042448
2.082,1.347,-0.040840
2.082,1.408,-0.040296
2.082,1.469,-0.036944
2.082,1.531,-0.033920
2.082,1.592,-0.031856
2.082,1.653,-0.030928
2.082,1.714,-0.028952
2.082,1.776,-0.027656
2.082,1.837,-0.027264
2.082,1.898,-0.025952
2.082,1.959,-0.023192
2.082,2.020,-0.020728
2.082,2.082,-0.017488
2.082,2.143,-0.014648
2.082,2.204,-0.012400
2.082,2.265,-0.010000
2.082,2.327,-0.008704
2.082,2.388,-0.007120
2.082,2.449,-0.006840
2.082,2.510,-0.004736
2.082,2.571,-0.003632
2.082,2.633,-0.003880
2.082,2.694,-0.002352
2.082,2.755,-0.000496
2.082,2.816,0.000896
2.082,2.878,0.004256
2.082,2.939,0.006568
2.082,3.000,0.006504
2.143,0.000,-0.083056
2.143,0.061,-0.079216
2.143,0.122,-0.075352
2.143,0.184,-0.071944
2.143,0.245,-0.070608
2.143,0.306,-0.070000
2.143,0.367,-0.067248
2.143,0.429,-0.063568
2.143,0.490,-0.061152
2.143,0.551,-0.060256
2.143,0.612,-0.058032
2.143,0.673,-0.056008
2.143,0.735,-0.055008
2.143,0.796,-0.052544
2.143,0.857,-0.049152
2.143,0.918,-0.045416
2.143,0.980,-0.042560
2.143,1.041,-0.039864
2.143,1.102,-0.039024
2.143,1.163,-0.037616
2.143,1.224,-0.035192
2.143,1.286,-0.034376
2.143,1.347,-0.032360
2.143,1.408,-0.030376
2.143,1.469,-0.027528
2.143,1.531,-0.027080
2.143,1.592,-0.024992
2.143,1.653,-0.022528
2.143,1.714,-0.020896
2.143,1.776,-0.020032
2.143,1.837,-0.018712
2.143,1.898,-0.016736
2.143,1.959,-0.015376
2.143,2.020,-0.012696
2.143,2.082,-0.010864
2.143,2.143,-0.007288
2.143,2.204,-0.005440
2.143,2.265,-0.004176
2.143,2.327,-0.002496
2.143,2.388,-0.001880
2.143,2.449,-0.001616
2.143,2.510,-0.000824
2.143,2.571,0.000936
2.143,2.633,0.002960
2.143,2.694,0.003584
2.143,2.755,0.005736
2.143,2.816,0.006912
2.143,2.878,0.008144
2.143,2.939,0.010440
2.143,3.000,0.011072
2.204,0.000,-0.067816
2.204,0.061,-0.063112
2.204,0.122,-0.061136
2.204,0.184,-0.058064
2.204,0.245,-0.056232
2.204,0.306,-0.055648
2.204,0.367,-0.053848
2.204,0.429,-0.050528
2.204,0.490,-0.048744
2.204,0.551,-0.047664
2.204,0.612,-0.046240
2.204,0.673,-0.045096
2.204,0.735,-0.044216
2.204,0.796,-0.040416
2.204,0.857,-0.036744
2.204,0.918,-0.036840
2.204,0.980,-0.034544
2.204,1.041,-0.031792
2.204,1.102,-0.029384
2.204,1.163,-0.027840
2.204,1.224,-0.026592
2.204,1.286,-0.025416
2.204,1.347,-0.022688
2.204,1.408,-0.020664
2.204,1.469,-0.019184
2.204,1.531,-0.017224
2.204,1.592,-0.014544
2.204,1.653,-0.013696
2.204,1.714,-0.012416
2.204,1.776,-0.010192
2.204,1.837,-0.009720
2.204,1.898,-0.007736
2.204,1.959,-0.006176
2.204,2.020,-0.005640
2.204,2.082,-0.004704
2.204,2.143,-0.001376
2.204,2.204,0.001688
2.204,2.265,0.003280
2.204,2.327,0.003584
2.204,2.388,0.003976
2.204,2.449,0.002672
2.204,2.510,0.003752
2.204,2.571,0.006816
2.204,2.633,0.008016
2.204,2.694,0.010224
2.204,2.755,0.011176
2.204,2.816,0.011440
2.204,2.878,0.013016
2.204,2.939,0.014568
2.204,3.000,0.016808
2.265,0.000,-0.050032
2.265,0.061,-0.048128
2.265,0.122,-0.046008
2.265,0.184,-0.043840
2.265,0.245,-0.042744
2.265,0.306,-0.040872
2.265,0.367,-0.037576
2.265,0.429,-0.033800
2.265,0.490,-0.032504
2.265,0.551,-0.032496
2.265,0.612,-0.031368
2.265,0.673,-0.030208
2.265,0.735,-0.029496
2.265,0.796,-0.027456
2.265,0.857,-0.027272
2.265,0.918,-0.026608
2.265,0.980,-0.025056
2.265,1.041,-0.023000
2.265,1.102,-0.021520
2.265,1.163,-0.017856
2.265,1.224,-0.016584
2.265,1.286,-0.015776
2.265,1.347,-0.012824
2.265,1.408,-0.010504
2.265,1.469,-0.008232
2.265,1.531,-0.008000
2.265,1.592,-0.007496
2.265,1.653,-0.004168
2.265,1.714,-0.002488
2.265,1.776,-0.002400
2.265,1.837,-0.001016
2.265,1.898,-0.000176
2.265,1.959,0.001072
2.265,2.020,0.001936
2.265,2.082,0.004128
2.265,2.143,0.005792
2.265,2.204,0.007272
2.265,2.265,0.007792
2.265,2.327,0.009040
2.265,2.388,0.009984
2.265,2.449,0.010632
2.265,2.510,0.012936
2.265,2.571,0.013568
2.265,2.633,0.012696
2.265,2.694,0.014792
2.265,2.755,0.016400
2.265,2.816,0.016920
2.265,2.878,0.019480
2.265,2.939,0.020216
2.265,3.000,0.021496
2.327,0.000,-0.034312
2.327,0.061,-0.033232
2.327,0.122,-0.030832
2.327,0.184,-0.027784
2.327,0.245,-0.028016
2.327,0.306,-0.026704
2.327,0.367,-0.024472
2.327,0.429,-0.022160
2.327,0.490,-0.019960
2.327,0.551,-0.020448
2.327,0.612,-0.018480
2.327,0.673,-0.018008
2.327,0.735,-0.017520
2.327,0.796,-0.015624
2.327,0.857,-0.015072
2.327,0.918,-0.013992
2.327,0.980,-0.012232
2.327,1.041,-0.010216
2.327,1.102,-0.010416
2.327,1.163,-0.008736
2.327,1.224,-0.007000
2.327,1.286,-0.006032
2.327,1.347,-0.002928
2.327,1.408,-0.002752
2.327,1.469,-0.001096
2.327,1.531,-0.000664
2.327,1.592,0.001104
2.327,1.653,0.002968
2.327,1.714,0.003296
2.327,1.776,0.005232
2.327,1.837,0.006584
2.327,1.898,0.007200
2.327,1.959,0.008432
2.327,2.020,0.008840
2.327,2.082,0.010792
2.327,2.143,0.013016
2.327,2.204,0.013616
2.327,2.265,0.014632
2.327,2.327,0.015248
2.327,2.388,0.016664
2.327,2.449,0.016472
2.327,2.510,0.016776
2.327,2.571,0.017512
2.327,2.633,0.019664
2.327,2.694,0.020976
2.327,2.755,0.022088
2.327,2.816,0.022736
2.327,2.878,0.023400
2.327,2.939,0.024736
2.327,3.000,0.025520
2.388,0.000,-0.022304
2.388,0.061,-0.020048
2.388,0.122,-0.017424
2.388,0.184,-0.014560
2.388,0.245,-0.013992
2.388,0.306,-0.015472
2.388,0.367,-0.011816
2.388,0.429,-0.010368
2.388,0.490,-0.008568
2.388,0.551,-0.007616
2.388,0.612,-0.008040
2.388,0.673,-0.005616
2.388,0.735,-0.004120
2.388,0.796,-0.003376
2.388,0.857,-0.002392
2.388,0.918,-0.000856
2.388,0.980,-0.000448
2.388,1.041,0.000344
2.388,1.102,0.001096
2.388,1.163,0.003032
2.388,1.224,0.002952
2.388,1.286,0.003808
2.388,1.347,0.005168
2.388,1.408,0.006352
2.388,1.469,0.008224
2.388,1.531,0.007832
2.388,1.592,0.007704
2.388,1.653,0.009472
2.388,1.714,0.011552
2.388,1.776,0.012640
2.388,1.837,0.013696
2.388,1.898,0.014720
2.388,1.959,0.016576
2.388,2.020,0.015992
2.388,2.082,0.017432
2.388,2.143,0.018456
2.388,2.204,0.019128
2.388,2.265,0.019416
2.388,2.327,0.020088
2.388,2.388,0.020992
2.388,2.449,0.020792
2.388,2.510,0.022720
2.388,2.571,0.025288
2.388,2.633,0.026096
2.388,2.694,0.026304
2.388,2.755,0.026840
2.388,2.816,0.027512
2.388,2.878,0.027328
2.388,2.939,0.029304
2.388,3.000,0.029688
2.449,0.000,-0.009808
2.449,0.061,-0.007064
2.449,0.122,-0.004904
2.449,0.184,-0.003592
2.449,0.245,-0.002912
2.449,0.306,-0.003152
2.449,0.367,-0.000760
2.449,0.429,0.000096
2.449,0.490,0.001616
2.449,0.551,0.003360
2.449,0.612,0.004968
2.449,0.673,0.006080
2.449,0.735,0.006240
2.449,0.796,0.007272
2.449,0.857,0.008208
2.449,0.918,0.006544
2.449,0.980,0.007624
2.449,1.041,0.009368
2.449,1.102,0.010536
2.449,1.163,0.011416
2.449,1.224,0.012928
2.449,1.286,0.014488
2.449,1.347,0.014456
2.449,1.408,0.014792
2.449,1.469,0.015160
2.449,1.531,0.013240
2.449,1.592,0.013776
2.449,1.653,0.014832
2.449,1.714,0.017672
2.449,1.776,0.019160
2.449,1.837,0.019096
2.449,1.898,0.017968
2.449,1.959,0.017872
2.449,2.020,0.019032
2.449,2.082,0.019248
2.449,2.143,0.020536
2.449,2.204,0.021272
2.449,2.265,0.023064
2.449,2.327,0.023648
2.449,2.388,0.023656
2.449,2.449,0.023712
2.449,2.510,0.024496
2.449,2.571,0.026576
2.449,2.633,0.027312
2.449,2.694,0.029824
2.449,2.755,0.029896
2.449,2.816,0.030760
2.449,2.878,0.030792
2.449,2.939,0.032056
2.449,3.000,0.031920
2.510,0.000,0.006248
2.510,0.061,0.006880
2.510,0.122,0.008944
2.510,0.184,0.008800
2.510,0.245,0.009400
2.510,0.306,0.011000
2.510,0.367,0.011520
2.510,0.429,0.013096
2.510,0.490,0.012536
2.510,0.551,0.013472
2.510,0.612,0.014152
2.510,0.673,0.012936
2.510,0.735,0.013832
2.510,0.796,0.015560
2.510,0.857,0.015360
2.510,0.918,0.014856
2.510,0.980,0.015768
2.510,1.041,0.017904
2.510,1.102,0.017736
2.510,1.163,0.018888
2.510,1.224,0.019376
2.510,1.286,0.019464
2.510,1.347,0.020984
2.510,1.408,0.021880
2.510,1.469,0.022576
2.510,1.531,0.020560
2.510,1.592,0.021936
2.510,1.653,0.022368
2.510,1.714,0.022952
2.510,1.776,0.025672
2.510,1.837,0.025360
2.510,1.898,0.024824
2.510,1.959,0.025624
2.510,2.020,0.025576
2.510,2.082,0.026672
2.510,2.143,0.027384
2.510,2.204,0.026456
2.510,2.265,0.027320
2.510,2.327,0.028624
2.510,2.388,0.030040
2.510,2.449,0.030888
2.510,2.510,0.031984
2.510,2.571,0.031064
2.510,2.633,0.029624
2.510,2.694,0.030656
2.510,2.755,0.032472
2.510,2.816,0.034160
2.510,2.878,0.034496
2.510,2.939,0.036016
2.510,3.000,0.034616
2.571,0.000,0.016760
2.571,0.061,0.017824
2.571,0.122,0.018440
2.571,0.184,0.019008
2.571,0.245,0.017128
2.571,0.306,0.019608
2.571,0.367,0.020488
2.571,0.429,0.019976
2.571,0.490,0.020096
2.571,0.551,0.018728
2.571,0.612,0.019192
2.571,0.673,0.019776
2.571,0.735,0.019936
2.571,0.796,0.022216
2.571,0.857,0.021976
2.571,0.918,0.022528
2.571,0.980,0.023400
2.571,1.041,0.024200
2.571,1.102,0.025800
2.571,1.163,0.024512
2.571,1.224,0.025424
2.571,1.286,0.026136
2.571,1.347,0.027680
2.571,1.408,0.026480
2.571,1.469,0.028064
2.571,1.531,0.027720
2.571,1.592,0.028200
2.571,1.653,0.028648
2.571,1.714,0.029392
2.571,1.776,0.030600
2.571,1.837,0.029944
2.571,1.898,0.029848
2.571,1.959,0.030512
2.571,2.020,0.030960
2.571,2.082,0.030208
2.571,2.143,0.032112
2.571,2.204,0.031248
2.571,2.265,0.032128
2.571,2.327,0.033488
2.571,2.388,0.034056
2.571,2.449,0.033680
2.571,2.510,0.033688
2.571,2.571,0.033128
2.571,2.633,0.033800
2.571,2.694,0.035456
2.571,2.755,0.035080
2.571,2.816,0.036248
2.571,2.878,0.037912
2.571,2.939,0.038608
2.571,3.000,0.037424
2.633,0.000,0.025376
2.633,0.061,0.026056
2.633,0.122,0.026544
2.633,0.184,0.026584
2.633,0.245,0.025968
2.633,0.306,0.025720
2.633,0.367,0.026216
2.633,0.429,0.026160
2.633,0.490,0.026144
2.633,0.551,0.024880
2.633,0.612,0.026920
2.633,0.673,0.026776
2.633,0.735,0.027256
2.633,0.796,0.027016
2.633,0.857,0.028144
2.633,0.918,0.028376
2.633,0.980,0.028832
2.633,1.041,0.030432
2.633,1.102,0.030480
2.633,1.163,0.030408
2.633,1.224,0.030800
2.633,1.286,0.030432
2.633,1.347,0.032216
2.633,1.408,0.033544
2.633,1.469,0.033920
2.633,1.531,0.033376
2.633,1.592,0.035192
2.633,1.653,0.034448
2.633,1.714,0.034200
2.633,1.776,0.033288
2.633,1.837,0.032288
2.633,1.898,0.034288
2.633,1.959,0.034280
2.633,2.020,0.036120
2.633,2.082,0.036384
2.633,2.143,0.035232
2.633,2.204,0.035408
2.633,2.265,0.036608
2.633,2.327,0.036872
2.633,2.388,0.036008
2.633,2.449,0.035952
2.633,2.510,0.035264
2.633,2.571,0.037904
2.633,2.633,0.036488
2.633,2.694,0.036960
2.633,2.755,0.038824
2.633,2.816,0.037720
2.633,2.878,0.037376
2.633,2.939,0.038832
2.633,3.000,0.038712
2.694,0.000,0.033424
2.694,0.061,0.033016
2.694,0.122,0.031928
2.694,0.184,0.033192
2.694,0.245,0.032888
2.694,0.306,0.033088
2.694,0.367,0.032704
2.694,0.429,0.030320
2.694,0.490,0.031768
2.694,0.551,0.030312
2.694,0.612,0.032576
2.694,0.673,0.031320
2.694,0.735,0.032536
2.694,0.796,0.034152
2.694,0.857,0.034032
2.694,0.918,0.032968
2.694,0.980,0.032224
2.694,1.041,0.033176
2.694,1.102,0.032216
2.694,1.163,0.035136
2.694,1.224,0.036576
2.694,1.286,0.036512
2.694,1.347,0.036688
2.694,1.408,0.034504
2.694,1.469,0.034504
2.694,1.531,0.035656
2.694,1.592,0.035024
2.694,1.653,0.036336
2.694,1.714,0.037840
2.694,1.776,0.037320
2.694,1.837,0.037864
2.694,1.898,0.037040
2.694,1.959,0.035968
2.694,2.020,0.036496
2.694,2.082,0.038368
2.694,2.143,0.038760
2.694,2.204,0.037400
2.694,2.265,0.037272
2.694,2.327,0.037808
2.694,2.388,0.038568
2.694,2.449,0.039568
2.694,2.510,0.039752
2.694,2.571,0.038736
2.694,2.633,0.038152
2.694,2.694,0.039504
2.694,2.755,0.039344
2.694,2.816,0.039608
2.694,2.878,0.038784
2.694,2.939,0.040680
2.694,3.000,0.040864
2.755,0.000,0.036240
2.755,0.061,0.037936
2.755,0.122,0.037968
2.755,0.184,0.037928
2.755,0.245,0.038984
2.755,0.306,0.037448
2.755,0.367,0.036728
2.755,0.429,0.035288
2.755,0.490,0.035408
2.755,0.551,0.034480
2.755,0.612,0.036000
2.755,0.673,0.036688
2.755,0.735,0.037696
2.755,0.796,0.037368
2.755,0.857,0.037256
2.755,0.918,0.037768
2.755,0.980,0.036520
2.755,1.041,0.035640
2.755,1.102,0.036576
2.755,1.163,0.037112
2.755,1.224,0.037288
2.755,1.286,0.037752
2.755,1.347,0.037680
2.755,1.408,0.037024
2.755,1.469,0.036864
2.755,1.531,0.035984
2.755,1.592,0.037648
2.755,1.653,0.038544
2.755,1.714,0.040152
2.755,1.776,0.039432
2.755,1.837,0.039360
2.755,1.898,0.038424
2.755,1.959,0.037640
2.755,2.020,0.038320
2.755,2.082,0.039368
2.755,2.143,0.037728
2.755,2.204,0.038504
2.755,2.265,0.038312
2.755,2.327,0.038288
2.755,2.388,0.037896
2.755,2.449,0.037688
2.755,2.510,0.039992
2.755,2.571,0.040760
2.755,2.633,0.038928
2.755,2.694,0.039512
2.755,2.755,0.038104
2.755,2.816,0.039240
2.755,2.878,0.040912
2.755,2.939,0.042432
2.755,3.000,0.042736
2.816,0.000,0.041056
2.816,0.061,0.040472
2.816,0.122,0.041000
2.816,0.184,0.040720
2.816,0.245,0.040216
2.816,0.306,0.039824
2.816,0.367,0.040392
2.816,0.429,0.037408
2.816,0.490,0.037352
2.816,0.551,0.038768
2.816,0.612,0.039656
2.816,0.673,0.040448
2.816,0.735,0.038440
2.816,0.796,0.036960
2.816,0.857,0.038448
2.816,0.918,0.038600
2.816,0.980,0.039080
2.816,1.041,0.039272
2.816,1.102,0.039856
2.816,1.163,0.037992
2.816,1.224,0.039064
2.816,1.286,0.039600
2.816,1.347,0.038416
2.816,1.408,0.038464
2.816,1.469,0.037152
2.816,1.531,0.036928
2.816,1.592,0.036248
2.816,1.653,0.038448
2.816,1.714,0.040632
2.816,1.776,0.040360
2.816,1.837,0.039568
2.816,1.898,0.039088
2.816,1.959,0.040744
2.816,2.020,0.039288
2.816,2.082,0.040120
2.816,2.143,0.038544
2.816,2.204,0.038000
2.816,2.265,0.038704
2.816,2.327,0.037744
2.816,2.388,0.039424
2.816,2.449,0.040936
2.816,2.510,0.037896
2.816,2.571,0.038088
2.816,2.633,0.038760
2.816,2.694,0.038752
2.816,2.755,0.039336
2.816,2.816,0.041840
2.816,2.878,0.042416
2.816,2.939,0.043576
2.816,3.000,0.042192
2.878,0.000,0.043376
2.878,0.061,0.042464
2.878,0.122,0.043016
2.878,0.184,0.042224
2.878,0.245,0.041376
2.878,0.306,0.040712
2.878,0.367,0.038888
2.878,0.429,0.037776
2.878,0.490,0.039368
2.878,0.551,0.039792
2.878,0.612,0.041496
2.878,0.673,0.040824
2.878,0.735,0.039312
2.878,0.796,0.038816
2.878,0.857,0.039160
2.878,0.918,0.038576
2.878,0.980,0.040368
2.878,1.041,0.040856
2.878,1.102,0.040792
2.878,1.163,0.041176
2.878,1.224,0.038968
2.878,1.286,0.039616
2.878,1.347,0.036992
2.878,1.408,0.038272
2.878,1.469,0.036928
2.878,1.531,0.037208
2.878,1.592,0.038544
2.878,1.653,0.038584
2.878,1.714,0.039160
2.878,1.776,0.040136
2.878,1.837,0.040496
2.878,1.898,0.039920
2.878,1.959,0.041112
2.878,2.020,0.040816
2.878,2.082,0.039848
2.878,2.143,0.037488
2.878,2.204,0.038872
2.878,2.265,0.039736
2.878,2.327,0.039744
2.878,2.388,0.039136
2.878,2.449,0.039176
2.878,2.510,0.037672
2.878,2.571,0.038168
2.878,2.633,0.036736
2.878,2.694,0.037240
2.878,2.755,0.039736
2.878,2.816,0.042064
2.878,2.878,0.041848
2.878,2.939,0.043592
2.878,3.000,0.045048
2.939,0.000,0.041168
2.939,0.061,0.041560
2.939,0.122,0.042888
2.939,0.184,0.041944
2.939,0.245,0.042304
2.939,0.306,0.041120
2.939,0.367,0.039912
2.939,0.429,0.039896
2.939,0.490,0.039208
2.939,0.551,0.038352
2.939,0.612,0.039368
2.939,0.673,0.040272
2.939,0.735,0.038792
2.939,0.796,0.039568
2.939,0.857,0.038384
2.939,0.918,0.038344
2.939,0.980,0.040488
2.939,1.041,0.041160
2.939,1.102,0.040976
2.939,1.163,0.039784
2.939,1.224,0.037688
2.939,1.286,0.039408
2.939,1.347,0.038352
2.939,1.408,0.038544
2.939,1.469,0.038152
2.939,1.531,0.036680
2.939,1.592,0.037256
2.939,1.653,0.038120
2.939,1.714,0.039880
2.939,1.776,0.038224
2.939,1.837,0.038968
2.939,1.898,0.039344
2.939,1.959,0.039136
2.939,2.020,0.039568
2.939,2.082,0.040056
2.939,2.143,0.038904
2.939,2.204,0.039808
2.939,2.265,0.039088
2.939,2.327,0.038320
2.939,2.388,0.038192
2.939,2.449,0.038792
2.939,2.510,0.039152
2.939,2.571,0.037808
2.939,2.633,0.036320
2.939,2.694,0.038272
2.939,2.755,0.040248
2.939,2.816,0.040344
2.939,2.878,0.040376
2.939,2.939,0.043536
2.939,3.000,0.042552
3.000,0.000,0.040568
3.000,0.061,0.040176
3.000,0.122,0.041200
3.000,0.184,0.038712
3.000,0.245,0.039472
3.000,0.306,0.038936
3.000,0.367,0.038024
3.000,0.429,0.036472
3.000,0.490,0.035072
3.000,0.551,0.034808
3.000,0.612,0.035328
3.000,0.673,0.036104
3.000,0.735,0.036744
3.000,0.796,0.036856
3.000,0.857,0.036960
3.000,0.918,0.037784
3.000,0.980,0.037544
3.000,1.041,0.038360
3.000,1.102,0.039640
3.000,1.163,0.038264
3.000,1.224,0.036696
3.000,1.286,0.037760
3.000,1.347,0.037144
3.000,1.408,0.036736
3.000,1.469,0.036496
3.000,1.531,0.036496
3.000,1.592,0.037744
3.000,1.653,0.035696
3.000,1.714,0.036600
3.000,1.776,0.037896
3.000,1.837,0.036800
3.000,1.898,0.037096
3.000,1.959,0.038000
3.000,2.020,0.038472
3.000,2.082,0.040072
3.000,2.143,0.039184
3.000,2.204,0.039264
3.000,2.265,0.038264
3.000,2.327,0.037896
3.000,2.388,0.037760
3.000,2.449,0.038408
3.000,2.510,0.040016
3.000,2.571,0.038784
3.000,2.633,0.038552
3.000,2.694,0.039400
3.000,2.755,0.040216
3.000,2.816,0.040872
3.000,2.878,0.038984
3.000,2.939,0.040584
3.000,3.000,0.039672
