J,h,magnetization_density
0.000,-1.000,-0.002230
0.000,-0.959,-0.003008
0.000,-0.918,-0.002818
0.000,-0.878,-0.002490
0.000,-0.837,-0.002584
0.000,-0.796,-0.001400
0.000,-0.755,-0.001312
0.000,-0.714,-0.001144
0.000,-0.673,-0.000958
0.000,-0.633,-0.000844
0.000,-0.592,-0.000782
0.000,-0.551,-0.000620
0.000,-0.510,-0.001102
0.000,-0.469,-0.001044
0.000,-0.429,-0.000998
0.000,-0.388,-0.000932
0.000,-0.347,-0.000608
0.000,-0.306,-0.000454
0.000,-0.265,-0.001480
0.000,-0.224,-0.001404
0.000,-0.184,-0.001366
0.000,-0.143,-0.001320
0.000,-0.102,-0.000180
0.000,-0.061,-0.000404
0.000,-0.020,-0.000224
0.000,0.020,-0.000424
0.000,0.061,0.001538
0.000,0.102,0.001490
0.000,0.143,0.001450
0.000,0.184,0.001546
0.000,0.224,0.001564
0.000,0.265,0.001652
0.000,0.306,0.001834
0.000,0.347,0.000500
0.000,0.388,0.000754
0.000,0.429,0.000932
0.000,0.469,0.001072
0.000,0.510,0.000984
0.000,0.551,0.001050
0.000,0.592,0.001058
0.000,0.633,0.001124
0.000,0.673,0.001012
0.000,0.714,0.001120
0.000,0.755,0.001332
0.000,0.796,0.000732
0.000,0.837,0.000878
0.000,0.878,0.000774
0.000,0.918,0.002658
0.000,0.959,0.002726
0.000,1.000,0.002886
0.061,-1.000,-0.001088
0.061,-0.959,-0.000756
0.061,-0.918,-0.000692
0.061,-0.878,-0.000692
0.061,-0.837,-0.000968
0.061,-0.796,-0.000732
0.061,-0.755,-0.000696
0.061,-0.714,-0.000808
0.061,-0.673,-0.000722
0.061,-0.633,-0.000522
0.061,-0.592,-0.000268
0.061,-0.551,-0.002966
0.061,-0.510,-0.002942
0.061,-0.469,-0.002766
0.061,-0.429,-0.002650
0.061,-0.388,-0.001774
0.061,-0.347,-0.001602
0.061,-0.306,-0.001486
0.061,-0.265,-0.001386
0.061,-0.224,0.000518
0.061,-0.184,0.000584
0.061,-0.143,0.000626
0.061,-0.102,0.000510
0.061,-0.061,0.000700
0.061,-0.020,0.000822
0.061,0.020,-0.000954
0.061,0.061,-0.000678
0.061,0.102,-0.000616
0.061,0.143,-0.000556
0.061,0.184,-0.000490
0.061,0.224,-0.000562
0.061,0.265,-0.000422
0.061,0.306,0.001004
0.061,0.347,0.001280
0.061,0.388,0.001512
0.061,0.429,0.001492
0.061,0.469,0.001564
0.061,0.510,-0.000054
0.061,0.551,-0.000020
0.061,0.592,0.000078
0.061,0.633,0.000488
0.061,0.673,0.000594
0.061,0.714,0.000828
0.061,0.755,0.000854
0.061,0.796,0.000836
0.061,0.837,0.001096
0.061,0.878,0.002480
0.061,0.918,0.002602
0.061,0.959,0.003026
0.061,1.000,0.003058
0.122,-1.000,-0.001352
0.122,-0.959,-0.001030
0.122,-0.918,-0.000896
0.122,-0.878,-0.001004
0.122,-0.837,-0.000906
0.122,-0.796,-0.000926
0.122,-0.755,-0.000750
0.122,-0.714,-0.000658
0.122,-0.673,-0.001402
0.122,-0.633,-0.001324
0.122,-0.592,-0.001264
0.122,-0.551,-0.001146
0.122,-0.510,0.000036
0.122,-0.469,0.000084
0.122,-0.429,0.000164
0.122,-0.388,0.000118
0.122,-0.347,0.000358
0.122,-0.306,0.002026
0.122,-0.265,0.002176
0.122,-0.224,0.002174
0.122,-0.184,0.002300
0.122,-0.143,0.002348
0.122,-0.102,0.002286
0.122,-0.061,0.002306
0.122,-0.020,-0.000420
0.122,0.020,-0.000404
0.122,0.061,-0.000238
0.122,0.102,-0.000242
0.122,0.143,-0.000126
0.122,0.184,-0.000190
0.122,0.224,-0.000020
0.122,0.265,0.000044
0.122,0.306,0.000072
0.122,0.347,0.000030
0.122,0.388,-0.000082
0.122,0.429,-0.000100
0.122,0.469,0.000184
0.122,0.510,0.000484
0.122,0.551,0.001246
0.122,0.592,0.001380
0.122,0.633,0.001454
0.122,0.673,0.001566
0.122,0.714,0.002002
0.122,0.755,0.001958
0.122,0.796,0.002102
0.122,0.837,0.002542
0.122,0.878,0.002384
0.122,0.918,0.002510
0.122,0.959,0.002452
0.122,1.000,0.002372
0.184,-1.000,-0.001618
0.184,-0.959,-0.001276
0.184,-0.918,-0.000974
0.184,-0.878,-0.000900
0.184,-0.837,-0.000730
0.184,-0.796,-0.001824
0.184,-0.755,-0.001620
0.184,-0.714,-0.001348
0.184,-0.673,-0.001240
0.184,-0.633,-0.001496
0.184,-0.592,-0.001332
0.184,-0.551,-0.001174
0.184,-0.510,-0.001212
0.184,-0.469,-0.001220
0.184,-0.429,-0.001120
0.184,-0.388,-0.001130
0.184,-0.347,-0.000348
0.184,-0.306,-0.000282
0.184,-0.265,-0.000254
0.184,-0.224,-0.000480
0.184,-0.184,-0.000434
0.184,-0.143,-0.000554
0.184,-0.102,-0.000450
0.184,-0.061,0.000082
0.184,-0.020,0.000150
0.184,0.020,0.000098
0.184,0.061,0.000200
0.184,0.102,0.000486
0.184,0.143,0.000716
0.184,0.184,0.000672
0.184,0.224,0.000718
0.184,0.265,0.000948
0.184,0.306,0.001026
0.184,0.347,0.001056
0.184,0.388,0.001104
0.184,0.429,0.001198
0.184,0.469,0.001362
0.184,0.510,-0.001322
0.184,0.551,-0.000994
0.184,0.592,-0.000796
0.184,0.633,-0.000780
0.184,0.673,-0.000804
0.184,0.714,-0.000684
0.184,0.755,-0.000526
0.184,0.796,0.002296
0.184,0.837,0.002394
0.184,0.878,0.002682
0.184,0.918,0.002706
0.184,0.959,0.001890
0.184,1.000,0.002132
0.245,-1.000,-0.001488
0.245,-0.959,-0.001516
0.245,-0.918,-0.000946
0.245,-0.878,-0.000896
0.245,-0.837,-0.000858
0.245,-0.796,-0.000582
0.245,-0.755,-0.000604
0.245,-0.714,-0.000304
0.245,-0.673,-0.000314
0.245,-0.633,-0.000240
0.245,-0.592,-0.000236
0.245,-0.551,0.000108
0.245,-0.510,0.000446
0.245,-0.469,0.000608
0.245,-0.429,0.000506
0.245,-0.388,-0.000672
0.245,-0.347,-0.000468
0.245,-0.306,-0.000376
0.245,-0.265,-0.000268
0.245,-0.224,-0.000250
0.245,-0.184,-0.001374
0.245,-0.143,-0.001208
0.245,-0.102,-0.001126
0.245,-0.061,0.001566
0.245,-0.020,0.001714
0.245,0.020,0.001816
0.245,0.061,0.001928
0.245,0.102,0.001886
0.245,0.143,0.001740
0.245,0.184,0.001648
0.245,0.224,0.001878
0.245,0.265,0.001932
0.245,0.306,0.002016
0.245,0.347,0.002194
0.245,0.388,0.002376
0.245,0.429,0.002534
0.245,0.469,0.001382
0.245,0.510,0.001464
0.245,0.551,0.001568
0.245,0.592,0.001546
0.245,0.633,0.001622
0.245,0.673,0.002118
0.245,0.714,0.002286
0.245,0.755,0.002322
0.245,0.796,0.002118
0.245,0.837,0.002258
0.245,0.878,0.002350
0.245,0.918,0.002454
0.245,0.959,0.002560
0.245,1.000,0.002558
0.306,-1.000,-0.002184
0.306,-0.959,-0.001848
0.306,-0.918,-0.001826
0.306,-0.878,-0.001802
0.306,-0.837,-0.001866
0.306,-0.796,-0.001882
0.306,-0.755,-0.001644
0.306,-0.714,-0.002812
0.306,-0.673,-0.002592
0.306,-0.633,-0.002336
0.306,-0.592,-0.002134
0.306,-0.551,-0.001968
0.306,-0.510,-0.001992
0.306,-0.469,-0.001944
0.306,-0.429,-0.001880
0.306,-0.388,-0.001674
0.306,-0.347,-0.001644
0.306,-0.306,-0.001546
0.306,-0.265,-0.001244
0.306,-0.224,-0.001050
0.306,-0.184,-0.001118
0.306,-0.143,0.000832
0.306,-0.102,0.000922
0.306,-0.061,0.001066
0.306,-0.020,0.001056
0.306,0.020,0.001002
0.306,0.061,0.001296
0.306,0.102,0.001032
0.306,0.143,0.000092
0.306,0.184,0.000102
0.306,0.224,0.000144
0.306,0.265,0.000302
0.306,0.306,0.000458
0.306,0.347,0.000350
0.306,0.388,0.001260
0.306,0.429,0.001336
0.306,0.469,0.001404
0.306,0.510,0.001386
0.306,0.551,0.002458
0.306,0.592,0.002522
0.306,0.633,0.002684
0.306,0.673,0.002724
0.306,0.714,0.002528
0.306,0.755,0.002696
0.306,0.796,0.003008
0.306,0.837,0.003276
0.306,0.878,0.003482
0.306,0.918,0.003414
0.306,0.959,0.003596
0.306,1.000,0.002088
0.367,-1.000,-0.002342
0.367,-0.959,-0.002196
0.367,-0.918,-0.002184
0.367,-0.878,-0.001936
0.367,-0.837,-0.001678
0.367,-0.796,-0.001586
0.367,-0.755,-0.001436
0.367,-0.714,-0.001418
0.367,-0.673,-0.001400
0.367,-0.633,-0.001146
0.367,-0.592,-0.002140
0.367,-0.551,-0.001884
0.367,-0.510,-0.001614
0.367,-0.469,0.000048
0.367,-0.429,0.000122
0.367,-0.388,0.000120
0.367,-0.347,0.000452
0.367,-0.306,0.000674
0.367,-0.265,0.000760
0.367,-0.224,0.000792
0.367,-0.184,-0.000326
0.367,-0.143,-0.000472
0.367,-0.102,-0.000592
0.367,-0.061,-0.000516
0.367,-0.020,-0.000600
0.367,0.020,-0.000614
0.367,0.061,-0.000434
0.367,0.102,-0.000532
0.367,0.143,-0.000284
0.367,0.184,-0.000174
0.367,0.224,-0.000178
0.367,0.265,0.001412
0.367,0.306,0.001544
0.367,0.347,0.001626
0.367,0.388,0.001720
0.367,0.429,0.001146
0.367,0.469,0.001256
0.367,0.510,0.001374
0.367,0.551,0.001418
0.367,0.592,0.001362
0.367,0.633,0.001518
0.367,0.673,0.001172
0.367,0.714,0.001290
0.367,0.755,0.001454
0.367,0.796,0.001460
0.367,0.837,0.001492
0.367,0.878,0.001850
0.367,0.918,0.001984
0.367,0.959,0.002116
0.367,1.000,0.002016
0.429,-1.000,-0.002092
0.429,-0.959,-0.002058
0.429,-0.918,-0.001694
0.429,-0.878,-0.001922
0.429,-0.837,-0.001906
0.429,-0.796,-0.001880
0.429,-0.755,-0.001754
0.429,-0.714,-0.002266
0.429,-0.673,-0.002160
0.429,-0.633,-0.002150
0.429,-0.592,-0.001956
0.429,-0.551,-0.001980
0.429,-0.510,-0.000384
0.429,-0.469,-0.000268
0.429,-0.429,-0.000346
0.429,-0.388,-0.000352
0.429,-0.347,-0.000382
0.429,-0.306,-0.000394
0.429,-0.265,-0.000200
0.429,-0.224,-0.000004
0.429,-0.184,0.000298
0.429,-0.143,0.000220
0.429,-0.102,0.000474
0.429,-0.061,0.000540
0.429,-0.020,0.000698
0.429,0.020,0.000750
0.429,0.061,0.000598
0.429,0.102,0.000810
0.429,0.143,0.001252
0.429,0.184,0.001526
0.429,0.224,0.001664
0.429,0.265,0.001390
0.429,0.306,0.001602
0.429,0.347,0.001256
0.429,0.388,0.001378
0.429,0.429,0.001522
0.429,0.469,0.001556
0.429,0.510,0.001554
0.429,0.551,0.001766
0.429,0.592,0.001686
0.429,0.633,0.001026
0.429,0.673,0.001298
0.429,0.714,0.001378
0.429,0.755,0.001412
0.429,0.796,0.001454
0.429,0.837,0.001526
0.429,0.878,0.001218
0.429,0.918,0.001128
0.429,0.959,0.001104
0.429,1.000,0.001346
0.490,-1.000,-0.002300
0.490,-0.959,-0.002178
0.490,-0.918,-0.001902
0.490,-0.878,-0.001674
0.490,-0.837,-0.002092
0.490,-0.796,-0.001994
0.490,-0.755,-0.001948
0.490,-0.714,-0.001762
0.490,-0.673,-0.001824
0.490,-0.633,-0.001656
0.490,-0.592,-0.001632
0.490,-0.551,-0.002512
0.490,-0.510,-0.002416
0.490,-0.469,-0.002274
0.490,-0.429,-0.002240
0.490,-0.388,-0.002340
0.490,-0.347,-0.002246
0.490,-0.306,-0.001088
0.490,-0.265,-0.000936
0.490,-0.224,-0.001060
0.490,-0.184,-0.000966
0.490,-0.143,0.000234
0.490,-0.102,0.000392
0.490,-0.061,0.000594
0.490,-0.020,0.000908
0.490,0.020,-0.000442
0.490,0.061,-0.000182
0.490,0.102,-0.000198
0.490,0.143,-0.000230
0.490,0.184,-0.000020
0.490,0.224,0.000346
0.490,0.265,0.000636
0.490,0.306,0.000930
0.490,0.347,0.000912
0.490,0.388,0.001186
0.490,0.429,0.001208
0.490,0.469,0.001480
0.490,0.510,0.001480
0.490,0.551,0.001622
0.490,0.592,0.001128
0.490,0.633,0.001266
0.490,0.673,0.001442
0.490,0.714,0.001436
0.490,0.755,0.001022
0.490,0.796,0.001222
0.490,0.837,0.001228
0.490,0.878,0.001582
0.490,0.918,0.003442
0.490,0.959,0.003488
0.490,1.000,0.003662
0.551,-1.000,-0.001818
0.551,-0.959,-0.001654
0.551,-0.918,-0.001510
0.551,-0.878,-0.003220
0.551,-0.837,-0.003008
0.551,-0.796,-0.002904
0.551,-0.755,-0.002646
0.551,-0.714,-0.002458
0.551,-0.673,-0.002242
0.551,-0.633,-0.001898
0.551,-0.592,-0.001876
0.551,-0.551,-0.001818
0.551,-0.510,-0.001590
0.551,-0.469,-0.001438
0.551,-0.429,-0.001074
0.551,-0.388,-0.001084
0.551,-0.347,-0.000786
0.551,-0.306,-0.000622
0.551,-0.265,-0.000804
0.551,-0.224,-0.000980
0.551,-0.184,-0.000888
0.551,-0.143,-0.000906
0.551,-0.102,-0.000772
0.551,-0.061,-0.000686
0.551,-0.020,-0.001602
0.551,0.020,-0.001362
0.551,0.061,-0.001142
0.551,0.102,-0.000868
0.551,0.143,-0.000870
0.551,0.184,-0.000700
0.551,0.224,-0.000786
0.551,0.265,-0.000406
0.551,0.306,-0.000300
0.551,0.347,-0.000380
0.551,0.388,-0.000184
0.551,0.429,-0.000064
0.551,0.469,0.002910
0.551,0.510,0.003048
0.551,0.551,0.003306
0.551,0.592,0.003396
0.551,0.633,0.003430
0.551,0.673,0.003736
0.551,0.714,0.003954
0.551,0.755,0.004358
0.551,0.796,0.004496
0.551,0.837,0.003840
0.551,0.878,0.003714
0.551,0.918,0.003954
0.551,0.959,0.004056
0.551,1.000,0.004362
0.612,-1.000,-0.002526
0.612,-0.959,-0.002456
0.612,-0.918,-0.002700
0.612,-0.878,-0.002580
0.612,-0.837,-0.002158
0.612,-0.796,-0.001612
0.612,-0.755,-0.001372
0.612,-0.714,-0.002630
0.612,-0.673,-0.002460
0.612,-0.633,-0.002370
0.612,-0.592,-0.002168
0.612,-0.551,-0.002986
0.612,-0.510,-0.002822
0.612,-0.469,-0.002662
0.612,-0.429,-0.002812
0.612,-0.388,-0.002818
0.612,-0.347,-0.001190
0.612,-0.306,-0.000868
0.612,-0.265,-0.000550
0.612,-0.224,-0.000582
0.612,-0.184,-0.000424
0.612,-0.143,-0.000586
0.612,-0.102,-0.000596
0.612,-0.061,-0.002412
0.612,-0.020,-0.002120
0.612,0.020,-0.002110
0.612,0.061,-0.002310
0.612,0.102,-0.002222
0.612,0.143,-0.002306
0.612,0.184,-0.000646
0.612,0.224,-0.000474
0.612,0.265,-0.000438
0.612,0.306,-0.000146
0.612,0.347,0.002148
0.612,0.388,0.002384
0.612,0.429,0.002574
0.612,0.469,0.002752
0.612,0.510,0.000540
0.612,0.551,0.000960
0.612,0.592,0.001066
0.612,0.633,0.001428
0.612,0.673,0.001598
0.612,0.714,0.001822
0.612,0.755,0.001860
0.612,0.796,0.004206
0.612,0.837,0.004374
0.612,0.878,0.004286
0.612,0.918,0.004528
0.612,0.959,0.004814
0.612,1.000,0.005130
0.673,-1.000,-0.004408
0.673,-0.959,-0.004164
0.673,-0.918,-0.004098
0.673,-0.878,-0.004212
0.673,-0.837,-0.002788
0.673,-0.796,-0.002700
0.673,-0.755,-0.002812
0.673,-0.714,-0.002684
0.673,-0.673,-0.002444
0.673,-0.633,-0.001982
0.673,-0.592,-0.001902
0.673,-0.551,-0.001600
0.673,-0.510,-0.001496
0.673,-0.469,-0.001176
0.673,-0.429,-0.000884
0.673,-0.388,-0.002842
0.673,-0.347,-0.002570
0.673,-0.306,-0.002450
0.673,-0.265,-0.002230
0.673,-0.224,-0.002292
0.673,-0.184,-0.002068
0.673,-0.143,-0.001890
0.673,-0.102,0.000104
0.673,-0.061,0.000068
0.673,-0.020,0.000222
0.673,0.020,0.000020
0.673,0.061,0.001512
0.673,0.102,0.001450
0.673,0.143,0.001604
0.673,0.184,-0.000548
0.673,0.224,-0.000188
0.673,0.265,-0.000192
0.673,0.306,-0.000106
0.673,0.347,-0.000146
0.673,0.388,0.000324
0.673,0.429,0.000506
0.673,0.469,-0.000686
0.673,0.510,-0.000588
0.673,0.551,-0.000164
0.673,0.592,0.000186
0.673,0.633,0.000252
0.673,0.673,0.000674
0.673,0.714,0.000866
0.673,0.755,0.003726
0.673,0.796,0.003806
0.673,0.837,0.003874
0.673,0.878,0.004086
0.673,0.918,0.003606
0.673,0.959,0.003956
0.673,1.000,0.004268
0.735,-1.000,-0.003808
0.735,-0.959,-0.005636
0.735,-0.918,-0.005594
0.735,-0.878,-0.005646
0.735,-0.837,-0.005418
0.735,-0.796,-0.005274
0.735,-0.755,-0.005078
0.735,-0.714,-0.003166
0.735,-0.673,-0.002656
0.735,-0.633,-0.002364
0.735,-0.592,-0.001956
0.735,-0.551,-0.001780
0.735,-0.510,-0.001446
0.735,-0.469,-0.001176
0.735,-0.429,-0.001216
0.735,-0.388,-0.000998
0.735,-0.347,-0.000688
0.735,-0.306,-0.000638
0.735,-0.265,-0.000158
0.735,-0.224,0.001974
0.735,-0.184,0.001950
0.735,-0.143,0.002208
0.735,-0.102,0.002196
0.735,-0.061,-0.002960
0.735,-0.020,-0.002988
0.735,0.020,-0.002896
0.735,0.061,-0.002964
0.735,0.102,-0.002894
0.735,0.143,-0.000070
0.735,0.184,0.000296
0.735,0.224,0.000194
0.735,0.265,0.000146
0.735,0.306,0.000372
0.735,0.347,0.000676
0.735,0.388,0.000852
0.735,0.429,0.001186
0.735,0.469,0.001642
0.735,0.510,0.002002
0.735,0.551,0.002296
0.735,0.592,0.002414
0.735,0.633,0.002526
0.735,0.673,0.002968
0.735,0.714,0.003258
0.735,0.755,0.003460
0.735,0.796,0.004028
0.735,0.837,0.004322
0.735,0.878,0.004588
0.735,0.918,0.004890
0.735,0.959,0.005050
0.735,1.000,0.003806
0.796,-1.000,-0.006044
0.796,-0.959,-0.005652
0.796,-0.918,-0.005104
0.796,-0.878,-0.004826
0.796,-0.837,-0.004422
0.796,-0.796,-0.004162
0.796,-0.755,-0.002718
0.796,-0.714,-0.002820
0.796,-0.673,-0.002626
0.796,-0.633,-0.002340
0.796,-0.592,-0.001976
0.796,-0.551,-0.001658
0.796,-0.510,-0.002386
0.796,-0.469,-0.002150
0.796,-0.429,-0.002004
0.796,-0.388,-0.001842
0.796,-0.347,-0.001282
0.796,-0.306,-0.001040
0.796,-0.265,-0.000722
0.796,-0.224,-0.000650
0.796,-0.184,-0.002332
0.796,-0.143,-0.002226
0.796,-0.102,-0.001992
0.796,-0.061,-0.001758
0.796,-0.020,-0.001504
0.796,0.020,-0.001352
0.796,0.061,-0.001192
0.796,0.102,0.000372
0.796,0.143,0.000622
0.796,0.184,0.000770
0.796,0.224,0.000780
0.796,0.265,0.000894
0.796,0.306,0.001122
0.796,0.347,0.001548
0.796,0.388,0.002178
0.796,0.429,0.002482
0.796,0.469,0.002612
0.796,0.510,0.002556
0.796,0.551,0.002444
0.796,0.592,0.002792
0.796,0.633,0.003188
0.796,0.673,0.002732
0.796,0.714,0.003014
0.796,0.755,0.002966
0.796,0.796,0.003254
0.796,0.837,0.003446
0.796,0.878,0.003562
0.796,0.918,0.003528
0.796,0.959,0.005258
0.796,1.000,0.005328
0.857,-1.000,-0.003604
0.857,-0.959,-0.003194
0.857,-0.918,-0.002866
0.857,-0.878,-0.002528
0.857,-0.837,-0.002306
0.857,-0.796,-0.004892
0.857,-0.755,-0.004740
0.857,-0.714,-0.004434
0.857,-0.673,-0.003954
0.857,-0.633,-0.003524
0.857,-0.592,-0.003110
0.857,-0.551,-0.003136
0.857,-0.510,-0.002860
0.857,-0.469,-0.002970
0.857,-0.429,-0.002846
0.857,-0.388,-0.002246
0.857,-0.347,-0.001990
0.857,-0.306,-0.001910
0.857,-0.265,-0.001846
0.857,-0.224,0.000016
0.857,-0.184,0.000328
0.857,-0.143,0.000562
0.857,-0.102,0.000610
0.857,-0.061,0.000690
0.857,-0.020,0.000654
0.857,0.020,0.001156
0.857,0.061,0.000280
0.857,0.102,0.000542
0.857,0.143,0.000680
0.857,0.184,0.001022
0.857,0.224,-0.000252
0.857,0.265,-0.000302
0.857,0.306,-0.000052
0.857,0.347,0.000198
0.857,0.388,-0.000056
0.857,0.429,0.000184
0.857,0.469,0.000240
0.857,0.510,0.000492
0.857,0.551,0.000876
0.857,0.592,0.000932
0.857,0.633,0.004078
0.857,0.673,0.004248
0.857,0.714,0.004246
0.857,0.755,0.004496
0.857,0.796,0.004906
0.857,0.837,0.004728
0.857,0.878,0.004878
0.857,0.918,0.005000
0.857,0.959,0.005412
0.857,1.000,0.005674
0.918,-1.000,-0.004152
0.918,-0.959,-0.003782
0.918,-0.918,-0.006058
0.918,-0.878,-0.005782
0.918,-0.837,-0.005302
0.918,-0.796,-0.004784
0.918,-0.755,-0.002550
0.918,-0.714,-0.002272
0.918,-0.673,-0.002110
0.918,-0.633,-0.002102
0.918,-0.592,-0.002050
0.918,-0.551,-0.001842
0.918,-0.510,-0.001548
0.918,-0.469,-0.001300
0.918,-0.429,-0.001024
0.918,-0.388,-0.000786
0.918,-0.347,-0.000652
0.918,-0.306,-0.000378
0.918,-0.265,-0.000546
0.918,-0.224,-0.000498
0.918,-0.184,-0.000310
0.918,-0.143,0.000074
0.918,-0.102,0.000076
0.918,-0.061,0.000322
0.918,-0.020,-0.000632
0.918,0.020,-0.000458
0.918,0.061,-0.000490
0.918,0.102,0.000464
0.918,0.143,0.000424
0.918,0.184,0.000818
0.918,0.224,0.001146
0.918,0.265,0.001446
0.918,0.306,0.000660
0.918,0.347,0.000878
0.918,0.388,0.001226
0.918,0.429,0.001472
0.918,0.469,0.001816
0.918,0.510,0.001816
0.918,0.551,0.002088
0.918,0.592,0.002956
0.918,0.633,0.003064
0.918,0.673,0.003232
0.918,0.714,0.003354
0.918,0.755,0.003582
0.918,0.796,0.003948
0.918,0.837,0.004632
0.918,0.878,0.005072
0.918,0.918,0.005028
0.918,0.959,0.005102
0.918,1.000,0.005804
0.980,-1.000,-0.005618
0.980,-0.959,-0.005242
0.980,-0.918,-0.004760
0.980,-0.878,-0.006238
0.980,-0.837,-0.005942
0.980,-0.796,-0.005710
0.980,-0.755,-0.005130
0.980,-0.714,-0.005002
0.980,-0.673,-0.004836
0.980,-0.633,-0.004538
0.980,-0.592,-0.001134
0.980,-0.551,-0.000850
0.980,-0.510,-0.000386
0.980,-0.469,-0.000104
0.980,-0.429,0.000048
0.980,-0.388,0.000292
0.980,-0.347,0.000414
0.980,-0.306,-0.003650
0.980,-0.265,-0.003260
0.980,-0.224,-0.003286
0.980,-0.184,-0.001570
0.980,-0.143,-0.001444
0.980,-0.102,-0.001266
0.980,-0.061,-0.000992
0.980,-0.020,0.000998
0.980,0.020,0.001108
0.980,0.061,0.001334
0.980,0.102,0.001698
0.980,0.143,0.001788
0.980,0.184,0.002086
0.980,0.224,0.002228
0.980,0.265,0.003592
0.980,0.306,0.003790
0.980,0.347,0.003892
0.980,0.388,0.004044
0.980,0.429,0.004270
0.980,0.469,0.004114
0.980,0.510,0.004216
0.980,0.551,0.001788
0.980,0.592,0.002260
0.980,0.633,0.002206
0.980,0.673,0.002330
0.980,0.714,0.003878
0.980,0.755,0.004118
0.980,0.796,0.004386
0.980,0.837,0.004580
0.980,0.878,0.006126
0.980,0.918,0.006242
0.980,0.959,0.006582
0.980,1.000,0.006732
1.041,-1.000,-0.004670
1.041,-0.959,-0.004256
1.041,-0.918,-0.006292
1.041,-0.878,-0.006098
1.041,-0.837,-0.005626
1.041,-0.796,-0.005446
1.041,-0.755,-0.005154
1.041,-0.714,-0.005034
1.041,-0.673,-0.004952
1.041,-0.633,-0.005348
1.041,-0.592,-0.004934
1.041,-0.551,-0.004720
1.041,-0.510,-0.004478
1.041,-0.469,-0.001816
1.041,-0.429,-0.001874
1.041,-0.388,-0.001896
1.041,-0.347,-0.001688
1.041,-0.306,-0.002456
1.041,-0.265,-0.002274
1.041,-0.224,-0.001990
1.041,-0.184,-0.001694
1.041,-0.143,-0.001496
1.041,-0.102,-0.001296
1.041,-0.061,-0.000694
1.041,-0.020,-0.000572
1.041,0.020,-0.000246
1.041,0.061,-0.000024
1.041,0.102,0.000084
1.041,0.143,0.000242
1.041,0.184,0.000486
1.041,0.224,-0.000126
1.041,0.265,0.000080
1.041,0.306,0.000410
1.041,0.347,0.000674
1.041,0.388,0.000682
1.041,0.429,0.002672
1.041,0.469,0.002464
1.041,0.510,0.002802
1.041,0.551,0.003078
1.041,0.592,0.003132
1.041,0.633,0.003256
1.041,0.673,0.003754
1.041,0.714,0.003676
1.041,0.755,0.003966
1.041,0.796,0.006210
1.041,0.837,0.006524
1.041,0.878,0.006636
1.041,0.918,0.006892
1.041,0.959,0.007144
1.041,1.000,0.007364
1.102,-1.000,-0.005370
1.102,-0.959,-0.004826
1.102,-0.918,-0.004694
1.102,-0.878,-0.004174
1.102,-0.837,-0.003684
1.102,-0.796,-0.003292
1.102,-0.755,-0.003126
1.102,-0.714,-0.003856
1.102,-0.673,-0.003668
1.102,-0.633,-0.003422
1.102,-0.592,-0.001398
1.102,-0.551,-0.001234
1.102,-0.510,-0.001048
1.102,-0.469,-0.000742
1.102,-0.429,-0.000390
1.102,-0.388,-0.001404
1.102,-0.347,-0.001114
1.102,-0.306,-0.000858
1.102,-0.265,-0.000400
1.102,-0.224,-0.000430
1.102,-0.184,-0.000162
1.102,-0.143,0.000030
1.102,-0.102,-0.001288
1.102,-0.061,-0.001146
1.102,-0.020,-0.001034
1.102,0.020,-0.000912
1.102,0.061,-0.000568
1.102,0.102,-0.000280
1.102,0.143,0.000348
1.102,0.184,0.000688
1.102,0.224,0.000848
1.102,0.265,0.001046
1.102,0.306,0.002324
1.102,0.347,0.002642
1.102,0.388,0.002900
1.102,0.429,0.003338
1.102,0.469,0.003466
1.102,0.510,0.003844
1.102,0.551,0.004380
1.102,0.592,0.004550
1.102,0.633,0.004684
1.102,0.673,0.004708
1.102,0.714,0.005064
1.102,0.755,0.004138
1.102,0.796,0.004468
1.102,0.837,0.004700
1.102,0.878,0.005086
1.102,0.918,0.005380
1.102,0.959,0.005428
1.102,1.000,0.005790
1.163,-1.000,-0.007790
1.163,-0.959,-0.007454
1.163,-0.918,-0.007254
1.163,-0.878,-0.006924
1.163,-0.837,-0.005518
1.163,-0.796,-0.005456
1.163,-0.755,-0.005352
1.163,-0.714,-0.006248
1.163,-0.673,-0.005804
1.163,-0.633,-0.005534
1.163,-0.592,-0.005030
1.163,-0.551,-0.004690
1.163,-0.510,-0.004338
1.163,-0.469,-0.003776
1.163,-0.429,-0.002718
1.163,-0.388,-0.002504
1.163,-0.347,-0.002128
1.163,-0.306,-0.001646
1.163,-0.265,-0.001198
1.163,-0.224,-0.000984
1.163,-0.184,-0.000908
1.163,-0.143,-0.001816
1.163,-0.102,-0.001488
1.163,-0.061,-0.001348
1.163,-0.020,-0.001182
1.163,0.020,-0.000476
1.163,0.061,-0.000130
1.163,0.102,0.000166
1.163,0.143,0.000170
1.163,0.184,0.000228
1.163,0.224,0.000468
1.163,0.265,0.000928
1.163,0.306,0.000994
1.163,0.347,0.001030
1.163,0.388,0.001376
1.163,0.429,0.001604
1.163,0.469,0.001776
1.163,0.510,0.002184
1.163,0.551,0.002368
1.163,0.592,0.002922
1.163,0.633,0.003112
1.163,0.673,0.003514
1.163,0.714,0.006140
1.163,0.755,0.006412
1.163,0.796,0.006362
1.163,0.837,0.006562
1.163,0.878,0.006926
1.163,0.918,0.005170
1.163,0.959,0.005362
1.163,1.000,0.005472
1.224,-1.000,-0.008654
1.224,-0.959,-0.008298
1.224,-0.918,-0.007818
1.224,-0.878,-0.007646
1.224,-0.837,-0.007398
1.224,-0.796,-0.007102
1.224,-0.755,-0.004920
1.224,-0.714,-0.004744
1.224,-0.673,-0.004586
1.224,-0.633,-0.004220
1.224,-0.592,-0.003950
1.224,-0.551,-0.003582
1.224,-0.510,-0.003408
1.224,-0.469,-0.002118
1.224,-0.429,-0.001938
1.224,-0.388,-0.001750
1.224,-0.347,-0.001502
1.224,-0.306,-0.001534
1.224,-0.265,-0.001320
1.224,-0.224,-0.001088
1.224,-0.184,-0.000786
1.224,-0.143,-0.000490
1.224,-0.102,0.000268
1.224,-0.061,0.000190
1.224,-0.020,0.000410
1.224,0.020,0.000726
1.224,0.061,0.000922
1.224,0.102,-0.000490
1.224,0.143,-0.000310
1.224,0.184,-0.000046
1.224,0.224,0.000092
1.224,0.265,0.000320
1.224,0.306,0.000342
1.224,0.347,0.000686
1.224,0.388,0.001142
1.224,0.429,0.001498
1.224,0.469,0.001814
1.224,0.510,0.002230
1.224,0.551,0.002570
1.224,0.592,0.003008
1.224,0.633,0.004470
1.224,0.673,0.004690
1.224,0.714,0.005022
1.224,0.755,0.002960
1.224,0.796,0.003426
1.224,0.837,0.003584
1.224,0.878,0.004080
1.224,0.918,0.004350
1.224,0.959,0.007796
1.224,1.000,0.007964
1.286,-1.000,-0.007284
1.286,-0.959,-0.007028
1.286,-0.918,-0.006588
1.286,-0.878,-0.006156
1.286,-0.837,-0.005664
1.286,-0.796,-0.006154
1.286,-0.755,-0.005936
1.286,-0.714,-0.005612
1.286,-0.673,-0.005108
1.286,-0.633,-0.004888
1.286,-0.592,-0.004700
1.286,-0.551,-0.003064
1.286,-0.510,-0.002810
1.286,-0.469,-0.002506
1.286,-0.429,-0.002170
1.286,-0.388,-0.001232
1.286,-0.347,-0.000758
1.286,-0.306,-0.000480
1.286,-0.265,-0.000112
1.286,-0.224,-0.002612
1.286,-0.184,-0.002290
1.286,-0.143,-0.002028
1.286,-0.102,-0.001804
1.286,-0.061,-0.001594
1.286,-0.020,-0.001378
1.286,0.020,-0.001080
1.286,0.061,0.000756
1.286,0.102,0.001186
1.286,0.143,0.001270
1.286,0.184,0.001432
1.286,0.224,0.001502
1.286,0.265,0.001964
1.286,0.306,0.002168
1.286,0.347,0.003596
1.286,0.388,0.003930
1.286,0.429,0.004284
1.286,0.469,0.004472
1.286,0.510,0.004838
1.286,0.551,0.005276
1.286,0.592,0.005574
1.286,0.633,0.003018
1.286,0.673,0.003290
1.286,0.714,0.003528
1.286,0.755,0.003932
1.286,0.796,0.004178
1.286,0.837,0.004464
1.286,0.878,0.004944
1.286,0.918,0.005578
1.286,0.959,0.005874
1.286,1.000,0.006294
1.347,-1.000,-0.006766
1.347,-0.959,-0.006244
1.347,-0.918,-0.005852
1.347,-0.878,-0.005406
1.347,-0.837,-0.005524
1.347,-0.796,-0.005328
1.347,-0.755,-0.005056
1.347,-0.714,-0.004572
1.347,-0.673,-0.004582
1.347,-0.633,-0.004336
1.347,-0.592,-0.003928
1.347,-0.551,-0.003588
1.347,-0.510,-0.002352
1.347,-0.469,-0.002166
1.347,-0.429,-0.001950
1.347,-0.388,-0.001630
1.347,-0.347,-0.001108
1.347,-0.306,-0.000862
1.347,-0.265,-0.001622
1.347,-0.224,-0.001696
1.347,-0.184,-0.001464
1.347,-0.143,-0.001060
1.347,-0.102,-0.000692
1.347,-0.061,-0.000376
1.347,-0.020,-0.000116
1.347,0.020,-0.001212
1.347,0.061,-0.000924
1.347,0.102,-0.000466
1.347,0.143,-0.000156
1.347,0.184,-0.000022
1.347,0.224,0.001500
1.347,0.265,0.001750
1.347,0.306,0.002144
1.347,0.347,0.000728
1.347,0.388,0.001348
1.347,0.429,0.001684
1.347,0.469,0.001882
1.347,0.510,0.002246
1.347,0.551,0.002758
1.347,0.592,0.005256
1.347,0.633,0.005504
1.347,0.673,0.005984
1.347,0.714,0.006146
1.347,0.755,0.006494
1.347,0.796,0.006778
1.347,0.837,0.006956
1.347,0.878,0.005874
1.347,0.918,0.006152
1.347,0.959,0.006630
1.347,1.000,0.007048
1.408,-1.000,-0.008748
1.408,-0.959,-0.009384
1.408,-0.918,-0.008966
1.408,-0.878,-0.008466
1.408,-0.837,-0.007984
1.408,-0.796,-0.005080
1.408,-0.755,-0.004952
1.408,-0.714,-0.004692
1.408,-0.673,-0.004144
1.408,-0.633,-0.003820
1.408,-0.592,-0.004080
1.408,-0.551,-0.003846
1.408,-0.510,-0.003540
1.408,-0.469,-0.003184
1.408,-0.429,-0.002846
1.408,-0.388,-0.002348
1.408,-0.347,-0.001986
1.408,-0.306,-0.000710
1.408,-0.265,-0.000488
1.408,-0.224,-0.000292
1.408,-0.184,-0.000122
1.408,-0.143,0.000120
1.408,-0.102,0.000182
1.408,-0.061,-0.000050
1.408,-0.020,0.000238
1.408,0.020,0.000630
1.408,0.061,0.000372
1.408,0.102,0.000392
1.408,0.143,0.000624
1.408,0.184,0.000974
1.408,0.224,0.001292
1.408,0.265,0.001770
1.408,0.306,0.001874
1.408,0.347,0.002124
1.408,0.388,0.002484
1.408,0.429,0.002960
1.408,0.469,0.003370
1.408,0.510,0.003858
1.408,0.551,0.005392
1.408,0.592,0.006012
1.408,0.633,0.006470
1.408,0.673,0.006968
1.408,0.714,0.007084
1.408,0.755,0.007460
1.408,0.796,0.005932
1.408,0.837,0.006268
1.408,0.878,0.006300
1.408,0.918,0.006692
1.408,0.959,0.007486
1.408,1.000,0.007852
1.469,-1.000,-0.007514
1.469,-0.959,-0.007220
1.469,-0.918,-0.007720
1.469,-0.878,-0.007242
1.469,-0.837,-0.006886
1.469,-0.796,-0.006678
1.469,-0.755,-0.006450
1.469,-0.714,-0.006182
1.469,-0.673,-0.005802
1.469,-0.633,-0.005330
1.469,-0.592,-0.004740
1.469,-0.551,-0.004506
1.469,-0.510,-0.004138
1.469,-0.469,-0.003810
1.469,-0.429,-0.003362
1.469,-0.388,-0.003018
1.469,-0.347,-0.003486
1.469,-0.306,-0.002924
1.469,-0.265,-0.002624
1.469,-0.224,-0.001606
1.469,-0.184,-0.001238
1.469,-0.143,-0.001030
1.469,-0.102,-0.000566
1.469,-0.061,-0.000304
1.469,-0.020,-0.000002
1.469,0.020,0.000236
1.469,0.061,0.000326
1.469,0.102,0.000496
1.469,0.143,0.000910
1.469,0.184,0.001298
1.469,0.224,0.000522
1.469,0.265,0.000962
1.469,0.306,0.001240
1.469,0.347,0.001712
1.469,0.388,0.001998
1.469,0.429,0.002040
1.469,0.469,0.002386
1.469,0.510,0.004252
1.469,0.551,0.004694
1.469,0.592,0.005080
1.469,0.633,0.005382
1.469,0.673,0.004958
1.469,0.714,0.005222
1.469,0.755,0.005630
1.469,0.796,0.005848
1.469,0.837,0.006630
1.469,0.878,0.007126
1.469,0.918,0.007610
1.469,0.959,0.007920
1.469,1.000,0.008444
1.531,-1.000,-0.007968
1.531,-0.959,-0.007298
1.531,-0.918,-0.007066
1.531,-0.878,-0.006830
1.531,-0.837,-0.006504
1.531,-0.796,-0.005984
1.531,-0.755,-0.005468
1.531,-0.714,-0.005306
1.531,-0.673,-0.006064
1.531,-0.633,-0.005638
1.531,-0.592,-0.005184
1.531,-0.551,-0.004954
1.531,-0.510,-0.004864
1.531,-0.469,-0.006750
1.531,-0.429,-0.006210
1.531,-0.388,-0.005966
1.531,-0.347,-0.001152
1.531,-0.306,-0.000758
1.531,-0.265,-0.000288
1.531,-0.224,0.000166
1.531,-0.184,0.000634
1.531,-0.143,0.000608
1.531,-0.102,-0.002964
1.531,-0.061,-0.002594
1.531,-0.020,-0.002154
1.531,0.020,-0.001840
1.531,0.061,-0.001462
1.531,0.102,-0.001042
1.531,0.143,-0.000578
1.531,0.184,0.000924
1.531,0.224,0.001198
1.531,0.265,0.001674
1.531,0.306,0.001994
1.531,0.347,0.002426
1.531,0.388,0.002586
1.531,0.429,0.003068
1.531,0.469,0.003872
1.531,0.510,0.004582
1.531,0.551,0.005270
1.531,0.592,0.005474
1.531,0.633,0.005740
1.531,0.673,0.005888
1.531,0.714,0.006390
1.531,0.755,0.007160
1.531,0.796,0.007434
1.531,0.837,0.007642
1.531,0.878,0.007946
1.531,0.918,0.008346
1.531,0.959,0.008910
1.531,1.000,0.009368
1.592,-1.000,-0.009728
1.592,-0.959,-0.009346
1.592,-0.918,-0.008920
1.592,-0.878,-0.008280
1.592,-0.837,-0.007826
1.592,-0.796,-0.007254
1.592,-0.755,0.004028
1.592,-0.714,0.004286
1.592,-0.673,0.004770
1.592,-0.633,-0.005634
1.592,-0.592,-0.005306
1.592,-0.551,-0.004808
1.592,-0.510,-0.004706
1.592,-0.469,-0.004052
1.592,-0.429,-0.003714
1.592,-0.388,-0.003352
1.592,-0.347,-0.003112
1.592,-0.306,-0.002600
1.592,-0.265,-0.002442
1.592,-0.224,-0.002094
1.592,-0.184,-0.001614
1.592,-0.143,-0.003064
1.592,-0.102,-0.002698
1.592,-0.061,-0.002462
1.592,-0.020,-0.002168
1.592,0.020,-0.001874
1.592,0.061,-0.001418
1.592,0.102,0.000946
1.592,0.143,0.001380
1.592,0.184,0.001592
1.592,0.224,0.001822
1.592,0.265,0.000986
1.592,0.306,0.001584
1.592,0.347,0.002176
1.592,0.388,0.002454
1.592,0.429,0.003850
1.592,0.469,0.004266
1.592,0.510,0.004448
1.592,0.551,0.004536
1.592,0.592,0.004980
1.592,0.633,0.005286
1.592,0.673,0.005714
1.592,0.714,0.005826
1.592,0.755,0.006182
1.592,0.796,0.006538
1.592,0.837,0.006940
1.592,0.878,0.007160
1.592,0.918,0.007550
1.592,0.959,0.007988
1.592,1.000,0.009460
1.653,-1.000,-0.007134
1.653,-0.959,-0.006604
1.653,-0.918,-0.005920
1.653,-0.878,-0.007528
1.653,-0.837,-0.007354
1.653,-0.796,-0.006818
1.653,-0.755,-0.008346
1.653,-0.714,-0.008132
1.653,-0.673,-0.007730
1.653,-0.633,-0.007558
1.653,-0.592,-0.007296
1.653,-0.551,-0.006968
1.653,-0.510,-0.006680
1.653,-0.469,-0.003860
1.653,-0.429,-0.003592
1.653,-0.388,-0.003206
1.653,-0.347,-0.003094
1.653,-0.306,-0.002822
1.653,-0.265,-0.002470
1.653,-0.224,-0.001932
1.653,-0.184,-0.000310
1.653,-0.143,-0.000054
1.653,-0.102,0.000518
1.653,-0.061,0.001040
1.653,-0.020,-0.001936
1.653,0.020,-0.001556
1.653,0.061,-0.001408
1.653,0.102,-0.000838
1.653,0.143,-0.000670
1.653,0.184,-0.000404
1.653,0.224,0.000088
1.653,0.265,0.000618
1.653,0.306,0.000916
1.653,0.347,0.001076
1.653,0.388,0.001532
1.653,0.429,0.001626
1.653,0.469,0.002234
1.653,0.510,0.002824
1.653,0.551,0.003346
1.653,0.592,0.003840
1.653,0.633,0.004456
1.653,0.673,0.006268
1.653,0.714,0.006800
1.653,0.755,0.006992
1.653,0.796,0.007038
1.653,0.837,0.007374
1.653,0.878,0.007622
1.653,0.918,0.008090
1.653,0.959,0.008474
1.653,1.000,0.008924
1.714,-1.000,-0.008734
1.714,-0.959,-0.008280
1.714,-0.918,-0.007938
1.714,-0.878,-0.007516
1.714,-0.837,-0.007042
1.714,-0.796,-0.004320
1.714,-0.755,-0.003924
1.714,-0.714,-0.003420
1.714,-0.673,-0.003048
1.714,-0.633,-0.002654
1.714,-0.592,-0.002328
1.714,-0.551,-0.001720
1.714,-0.510,-0.006012
1.714,-0.469,-0.005546
1.714,-0.429,-0.004692
1.714,-0.388,-0.004040
1.714,-0.347,-0.003630
1.714,-0.306,-0.002578
1.714,-0.265,-0.002454
1.714,-0.224,-0.001944
1.714,-0.184,-0.001682
1.714,-0.143,0.000048
1.714,-0.102,0.000370
1.714,-0.061,0.000860
1.714,-0.020,0.001188
1.714,0.020,0.001598
1.714,0.061,0.001294
1.714,0.102,0.001618
1.714,0.143,0.002220
1.714,0.184,0.002368
1.714,0.224,0.002628
1.714,0.265,0.002974
1.714,0.306,0.003118
1.714,0.347,0.002500
1.714,0.388,0.002612
1.714,0.429,0.002786
1.714,0.469,0.003194
1.714,0.510,0.003386
1.714,0.551,0.003930
1.714,0.592,0.005718
1.714,0.633,0.006246
1.714,0.673,0.006550
1.714,0.714,0.006858
1.714,0.755,0.007274
1.714,0.796,0.007486
1.714,0.837,0.008194
1.714,0.878,0.008624
1.714,0.918,0.008688
1.714,0.959,0.009016
1.714,1.000,0.009158
1.776,-1.000,-0.010304
1.776,-0.959,-0.009584
1.776,-0.918,-0.008996
1.776,-0.878,-0.008372
1.776,-0.837,-0.008676
1.776,-0.796,-0.008280
1.776,-0.755,-0.007634
1.776,-0.714,-0.007176
1.776,-0.673,-0.006610
1.776,-0.633,-0.006420
1.776,-0.592,-0.006890
1.776,-0.551,-0.006228
1.776,-0.510,-0.005880
1.776,-0.469,-0.005228
1.776,-0.429,-0.005390
1.776,-0.388,-0.005192
1.776,-0.347,-0.005102
1.776,-0.306,-0.004848
1.776,-0.265,-0.004118
1.776,-0.224,-0.003542
1.776,-0.184,-0.003274
1.776,-0.143,-0.003008
1.776,-0.102,-0.002658
1.776,-0.061,-0.002494
1.776,-0.020,-0.002216
1.776,0.020,-0.000756
1.776,0.061,-0.000410
1.776,0.102,-0.000168
1.776,0.143,0.000382
1.776,0.184,0.000986
1.776,0.224,0.001638
1.776,0.265,0.002266
1.776,0.306,0.003034
1.776,0.347,0.003312
1.776,0.388,0.003610
1.776,0.429,0.003824
1.776,0.469,0.004938
1.776,0.510,0.005594
1.776,0.551,0.005902
1.776,0.592,0.004958
1.776,0.633,0.004974
1.776,0.673,0.005290
1.776,0.714,0.005804
1.776,0.755,0.006426
1.776,0.796,0.006864
1.776,0.837,0.007364
1.776,0.878,0.009860
1.776,0.918,0.009998
1.776,0.959,0.010590
1.776,1.000,0.011130
1.837,-1.000,-0.008312
1.837,-0.959,-0.007752
1.837,-0.918,-0.007264
1.837,-0.878,-0.006852
1.837,-0.837,-0.006602
1.837,-0.796,-0.006198
1.837,-0.755,-0.005790
1.837,-0.714,-0.006962
1.837,-0.673,-0.006468
1.837,-0.633,-0.006122
1.837,-0.592,-0.005450
1.837,-0.551,-0.006130
1.837,-0.510,-0.005634
1.837,-0.469,-0.005284
1.837,-0.429,-0.004920
1.837,-0.388,-0.004410
1.837,-0.347,-0.004222
1.837,-0.306,-0.003692
1.837,-0.265,-0.003480
1.837,-0.224,-0.002710
1.837,-0.184,-0.002456
1.837,-0.143,-0.002052
1.837,-0.102,-0.001698
1.837,-0.061,-0.001180
1.837,-0.020,-0.000582
1.837,0.020,-0.000270
1.837,0.061,0.000166
1.837,0.102,0.000474
1.837,0.143,0.000906
1.837,0.184,0.000968
1.837,0.224,0.001352
1.837,0.265,0.001826
1.837,0.306,0.003362
1.837,0.347,0.003668
1.837,0.388,0.004004
1.837,0.429,0.004572
1.837,0.469,0.005010
1.837,0.510,0.005546
1.837,0.551,0.005526
1.837,0.592,0.006050
1.837,0.633,0.006526
1.837,0.673,0.006634
1.837,0.714,0.007108
1.837,0.755,0.007632
1.837,0.796,0.008078
1.837,0.837,0.008706
1.837,0.878,0.009226
1.837,0.918,0.009694
1.837,0.959,0.009996
1.837,1.000,0.010512
1.898,-1.000,-0.012440
1.898,-0.959,-0.011930
1.898,-0.918,-0.011352
1.898,-0.878,-0.011070
1.898,-0.837,-0.008114
1.898,-0.796,-0.007772
1.898,-0.755,-0.007712
1.898,-0.714,-0.007090
1.898,-0.673,-0.006432
1.898,-0.633,-0.005948
1.898,-0.592,-0.005468
1.898,-0.551,-0.004814
1.898,-0.510,-0.004166
1.898,-0.469,-0.003558
1.898,-0.429,-0.003382
1.898,-0.388,-0.003078
1.898,-0.347,-0.004002
1.898,-0.306,-0.003586
1.898,-0.265,-0.003442
1.898,-0.224,-0.003020
1.898,-0.184,-0.002578
1.898,-0.143,-0.002312
1.898,-0.102,-0.000586
1.898,-0.061,0.000006
1.898,-0.020,0.000194
1.898,0.020,-0.000880
1.898,0.061,-0.000462
1.898,0.102,-0.000056
1.898,0.143,0.000500
1.898,0.184,0.001178
1.898,0.224,0.002426
1.898,0.265,0.002982
1.898,0.306,0.003394
1.898,0.347,0.003774
1.898,0.388,0.004364
1.898,0.429,0.004698
1.898,0.469,0.005218
1.898,0.510,0.005050
1.898,0.551,0.005452
1.898,0.592,0.006154
1.898,0.633,0.006688
1.898,0.673,0.006940
1.898,0.714,0.007514
1.898,0.755,0.009542
1.898,0.796,0.009676
1.898,0.837,0.010140
1.898,0.878,0.010600
1.898,0.918,0.009496
1.898,0.959,0.009920
1.898,1.000,0.010470
1.959,-1.000,-0.011510
1.959,-0.959,-0.010610
1.959,-0.918,-0.009996
1.959,-0.878,-0.009546
1.959,-0.837,-0.009040
1.959,-0.796,-0.008506
1.959,-0.755,-0.008382
1.959,-0.714,-0.007754
1.959,-0.673,-0.007640
1.959,-0.633,-0.007044
1.959,-0.592,-0.006460
1.959,-0.551,-0.006048
1.959,-0.510,-0.006042
1.959,-0.469,-0.005524
1.959,-0.429,-0.005046
1.959,-0.388,-0.001830
1.959,-0.347,-0.001392
1.959,-0.306,-0.001206
1.959,-0.265,-0.003568
1.959,-0.224,-0.003474
1.959,-0.184,-0.003012
1.959,-0.143,-0.002010
1.959,-0.102,-0.000884
1.959,-0.061,-0.000180
1.959,-0.020,0.000164
1.959,0.020,0.000808
1.959,0.061,0.001170
1.959,0.102,0.001616
1.959,0.143,0.001590
1.959,0.184,0.001594
1.959,0.224,0.002088
1.959,0.265,0.002516
1.959,0.306,0.002914
1.959,0.347,0.003314
1.959,0.388,0.003566
1.959,0.429,0.003866
1.959,0.469,0.004832
1.959,0.510,0.005312
1.959,0.551,0.005822
1.959,0.592,0.006154
1.959,0.633,0.006916
1.959,0.673,0.006890
1.959,0.714,0.007344
1.959,0.755,0.007948
1.959,0.796,0.009620
1.959,0.837,0.009882
1.959,0.878,0.010378
1.959,0.918,0.010828
1.959,0.959,0.011326
1.959,1.000,0.011864
2.020,-1.000,-0.010622
2.020,-0.959,-0.010060
2.020,-0.918,-0.009654
2.020,-0.878,-0.009262
2.020,-0.837,-0.008684
2.020,-0.796,-0.008174
2.020,-0.755,-0.007954
2.020,-0.714,-0.007824
2.020,-0.673,-0.007372
2.020,-0.633,-0.007000
2.020,-0.592,-0.006414
2.020,-0.551,-0.004710
2.020,-0.510,-0.004396
2.020,-0.469,-0.003968
2.020,-0.429,-0.003254
2.020,-0.388,-0.004584
2.020,-0.347,-0.004278
2.020,-0.306,-0.003814
2.020,-0.265,-0.003062
2.020,-0.224,-0.002866
2.020,-0.184,-0.002542
2.020,-0.143,-0.001650
2.020,-0.102,-0.001156
2.020,-0.061,-0.000784
2.020,-0.020,-0.000386
2.020,0.020,0.000120
2.020,0.061,0.000750
2.020,0.102,0.001208
2.020,0.143,0.003778
2.020,0.184,0.004290
2.020,0.224,0.004732
2.020,0.265,0.005334
2.020,0.306,0.005710
2.020,0.347,0.004218
2.020,0.388,0.004466
2.020,0.429,0.004956
2.020,0.469,0.005450
2.020,0.510,0.005418
2.020,0.551,0.005706
2.020,0.592,0.006146
2.020,0.633,0.006702
2.020,0.673,0.006788
2.020,0.714,0.007532
2.020,0.755,0.008104
2.020,0.796,0.008544
2.020,0.837,0.009154
2.020,0.878,0.009678
2.020,0.918,0.010182
2.020,0.959,0.010616
2.020,1.000,0.011670
2.082,-1.000,-0.012176
2.082,-0.959,-0.011720
2.082,-0.918,-0.011386
2.082,-0.878,-0.011476
2.082,-0.837,-0.011298
2.082,-0.796,-0.010824
2.082,-0.755,-0.010194
2.082,-0.714,-0.009910
2.082,-0.673,-0.007420
2.082,-0.633,-0.007260
2.082,-0.592,-0.006980
2.082,-0.551,-0.006352
2.082,-0.510,-0.005846
2.082,-0.469,-0.005676
2.082,-0.429,-0.005244
2.082,-0.388,-0.004692
2.082,-0.347,-0.004198
2.082,-0.306,-0.003720
2.082,-0.265,-0.003462
2.082,-0.224,-0.002950
2.082,-0.184,-0.001692
2.082,-0.143,-0.001310
2.082,-0.102,-0.000846
2.082,-0.061,-0.000282
2.082,-0.020,0.000088
2.082,0.020,0.000556
2.082,0.061,0.000194
2.082,0.102,0.000700
2.082,0.143,0.001112
2.082,0.184,0.001954
2.082,0.224,0.001424
2.082,0.265,0.001754
2.082,0.306,0.002344
2.082,0.347,0.002930
2.082,0.388,0.006022
2.082,0.429,0.006552
2.082,0.469,0.006936
2.082,0.510,0.007328
2.082,0.551,0.008062
2.082,0.592,0.008328
2.082,0.633,0.008910
2.082,0.673,0.010120
2.082,0.714,0.010158
2.082,0.755,0.010588
2.082,0.796,0.010962
2.082,0.837,0.011398
2.082,0.878,0.011970
2.082,0.918,0.012396
2.082,0.959,0.012848
2.082,1.000,0.013026
2.143,-1.000,-0.010258
2.143,-0.959,-0.010608
2.143,-0.918,-0.009854
2.143,-0.878,-0.009170
2.143,-0.837,-0.008666
2.143,-0.796,-0.009922
2.143,-0.755,-0.009480
2.143,-0.714,-0.009122
2.143,-0.673,-0.008636
2.143,-0.633,-0.008296
2.143,-0.592,-0.007682
2.143,-0.551,-0.007570
2.143,-0.510,-0.006706
2.143,-0.469,-0.006028
2.143,-0.429,-0.005570
2.143,-0.388,-0.005044
2.143,-0.347,-0.004740
2.143,-0.306,-0.003962
2.143,-0.265,-0.003594
2.143,-0.224,-0.002434
2.143,-0.184,-0.001912
2.143,-0.143,-0.001600
2.143,-0.102,-0.002284
2.143,-0.061,-0.001644
2.143,-0.020,-0.001002
2.143,0.020,-0.000266
2.143,0.061,0.002230
2.143,0.102,0.003002
2.143,0.143,0.003388
2.143,0.184,0.003826
2.143,0.224,0.004470
2.143,0.265,0.004916
2.143,0.306,0.005146
2.143,0.347,0.003834
2.143,0.388,0.004518
2.143,0.429,0.005244
2.143,0.469,0.005890
2.143,0.510,0.006542
2.143,0.551,0.006970
2.143,0.592,0.007740
2.143,0.633,0.007194
2.143,0.673,0.007472
2.143,0.714,0.007974
2.143,0.755,0.008602
2.143,0.796,0.008122
2.143,0.837,0.008446
2.143,0.878,0.008958
2.143,0.918,0.009680
2.143,0.959,0.012608
2.143,1.000,0.013144
2.204,-1.000,-0.010698
2.204,-0.959,-0.010262
2.204,-0.918,-0.009780
2.204,-0.878,-0.009354
2.204,-0.837,-0.011374
2.204,-0.796,-0.011168
2.204,-0.755,-0.010724
2.204,-0.714,-0.009996
2.204,-0.673,-0.009498
2.204,-0.633,-0.009096
2.204,-0.592,-0.008560
2.204,-0.551,-0.006944
2.204,-0.510,-0.006490
2.204,-0.469,-0.005830
2.204,-0.429,-0.005482
2.204,-0.388,-0.005064
2.204,-0.347,-0.004546
2.204,-0.306,-0.004068
2.204,-0.265,-0.003418
2.204,-0.224,-0.003376
2.204,-0.184,-0.002842
2.204,-0.143,-0.002842
2.204,-0.102,-0.002156
2.204,-0.061,-0.001230
2.204,-0.020,-0.000954
2.204,0.020,0.002188
2.204,0.061,0.002842
2.204,0.102,0.003600
2.204,0.143,0.003986
2.204,0.184,0.004422
2.204,0.224,0.004788
2.204,0.265,0.005406
2.204,0.306,0.002494
2.204,0.347,0.003044
2.204,0.388,0.003358
2.204,0.429,0.003968
2.204,0.469,0.004444
2.204,0.510,0.005050
2.204,0.551,0.005368
2.204,0.592,0.005846
2.204,0.633,0.006554
2.204,0.673,0.006226
2.204,0.714,0.007062
2.204,0.755,0.007886
2.204,0.796,0.008126
2.204,0.837,0.008406
2.204,0.878,0.009084
2.204,0.918,0.009638
2.204,0.959,0.010044
2.204,1.000,0.010912
2.265,-1.000,-0.013384
2.265,-0.959,-0.012696
2.265,-0.918,-0.012372
2.265,-0.878,-0.012336
2.265,-0.837,-0.011636
2.265,-0.796,-0.011164
2.265,-0.755,-0.010568
2.265,-0.714,-0.010034
2.265,-0.673,-0.008720
2.265,-0.633,-0.008208
2.265,-0.592,-0.007696
2.265,-0.551,-0.007332
2.265,-0.510,-0.006244
2.265,-0.469,-0.005740
2.265,-0.429,-0.005026
2.265,-0.388,-0.004304
2.265,-0.347,-0.003712
2.265,-0.306,-0.002946
2.265,-0.265,-0.002536
2.265,-0.224,-0.001846
2.265,-0.184,-0.001380
2.265,-0.143,-0.000864
2.265,-0.102,-0.000416
2.265,-0.061,0.000388
2.265,-0.020,0.000150
2.265,0.020,0.000536
2.265,0.061,0.000890
2.265,0.102,0.001732
2.265,0.143,0.002412
2.265,0.184,0.002984
2.265,0.224,0.002248
2.265,0.265,0.002980
2.265,0.306,0.003552
2.265,0.347,0.004258
2.265,0.388,0.005066
2.265,0.429,0.005614
2.265,0.469,0.006112
2.265,0.510,0.006872
2.265,0.551,0.006454
2.265,0.592,0.006912
2.265,0.633,0.007236
2.265,0.673,0.007688
2.265,0.714,0.008034
2.265,0.755,0.008632
2.265,0.796,0.009422
2.265,0.837,0.010692
2.265,0.878,0.011100
2.265,0.918,0.011772
2.265,0.959,0.012352
2.265,1.000,0.012662
2.327,-1.000,-0.013234
2.327,-0.959,-0.013024
2.327,-0.918,-0.012022
2.327,-0.878,-0.011522
2.327,-0.837,-0.011068
2.327,-0.796,-0.011100
2.327,-0.755,-0.010692
2.327,-0.714,-0.010020
2.327,-0.673,-0.009842
2.327,-0.633,-0.008076
2.327,-0.592,-0.007634
2.327,-0.551,-0.006936
2.327,-0.510,-0.006468
2.327,-0.469,-0.005786
2.327,-0.429,-0.005236
2.327,-0.388,-0.004578
2.327,-0.347,-0.002358
2.327,-0.306,-0.001762
2.327,-0.265,-0.001376
2.327,-0.224,-0.000826
2.327,-0.184,-0.000380
2.327,-0.143,0.000030
2.327,-0.102,0.000524
2.327,-0.061,-0.001602
2.327,-0.020,-0.000600
2.327,0.020,0.000144
2.327,0.061,0.000566
2.327,0.102,0.002000
2.327,0.143,0.002204
2.327,0.184,0.002626
2.327,0.224,0.003058
2.327,0.265,0.005160
2.327,0.306,0.005502
2.327,0.347,0.005894
2.327,0.388,0.006456
2.327,0.429,0.006962
2.327,0.469,0.007658
2.327,0.510,0.006272
2.327,0.551,0.007014
2.327,0.592,0.007678
2.327,0.633,0.008198
2.327,0.673,0.008742
2.327,0.714,0.009010
2.327,0.755,0.009586
2.327,0.796,0.011582
2.327,0.837,0.011734
2.327,0.878,0.012146
2.327,0.918,0.012740
2.327,0.959,0.013408
2.327,1.000,0.013952
2.388,-1.000,-0.014000
2.388,-0.959,-0.013616
2.388,-0.918,-0.011968
2.388,-0.878,-0.011648
2.388,-0.837,-0.010856
2.388,-0.796,-0.010700
2.388,-0.755,-0.010162
2.388,-0.714,-0.009946
2.388,-0.673,-0.009728
2.388,-0.633,-0.009240
2.388,-0.592,-0.008484
2.388,-0.551,-0.007764
2.388,-0.510,-0.007278
2.388,-0.469,-0.006856
2.388,-0.429,-0.006358
2.388,-0.388,-0.006114
2.388,-0.347,-0.005656
2.388,-0.306,-0.004928
2.388,-0.265,-0.004530
2.388,-0.224,-0.004022
2.388,-0.184,-0.004940
2.388,-0.143,-0.004628
2.388,-0.102,-0.004020
2.388,-0.061,-0.003178
2.388,-0.020,-0.000490
2.388,0.020,0.000128
2.388,0.061,0.000786
2.388,0.102,0.001326
2.388,0.143,0.001934
2.388,0.184,0.004714
2.388,0.224,0.004926
2.388,0.265,0.005528
2.388,0.306,0.006032
2.388,0.347,0.006884
2.388,0.388,0.007262
2.388,0.429,0.008218
2.388,0.469,0.029670
2.388,0.510,0.030436
2.388,0.551,0.031276
2.388,0.592,0.032204
2.388,0.633,0.033114
2.388,0.673,0.010486
2.388,0.714,0.010702
2.388,0.755,0.010944
2.388,0.796,0.011570
2.388,0.837,0.012894
2.388,0.878,0.013686
2.388,0.918,0.013986
2.388,0.959,0.014632
2.388,1.000,0.014992
2.449,-1.000,-0.012886
2.449,-0.959,-0.012482
2.449,-0.918,-0.011812
2.449,-0.878,-0.011314
2.449,-0.837,-0.010802
2.449,-0.796,-0.010036
2.449,-0.755,-0.009490
2.449,-0.714,-0.008906
2.449,-0.673,-0.008330
2.449,-0.633,-0.007956
2.449,-0.592,-0.007708
2.449,-0.551,-0.007222
2.449,-0.510,-0.007036
2.449,-0.469,-0.006356
2.449,-0.429,-0.005824
2.449,-0.388,-0.005192
2.449,-0.347,-0.006558
2.449,-0.306,-0.006006
2.449,-0.265,-0.005524
2.449,-0.224,-0.004828
2.449,-0.184,-0.004356
2.449,-0.143,-0.001036
2.449,-0.102,-0.000396
2.449,-0.061,0.000182
2.449,-0.020,0.000892
2.449,0.020,0.001738
2.449,0.061,0.002420
2.449,0.102,0.003292
2.449,0.143,0.000038
2.449,0.184,0.000538
2.449,0.224,0.001016
2.449,0.265,0.001606
2.449,0.306,0.002364
2.449,0.347,0.002758
2.449,0.388,0.005482
2.449,0.429,0.006204
2.449,0.469,0.006808
2.449,0.510,0.006342
2.449,0.551,0.007130
2.449,0.592,0.007828
2.449,0.633,0.008454
2.449,0.673,0.008862
2.449,0.714,0.010616
2.449,0.755,0.011196
2.449,0.796,0.011838
2.449,0.837,0.012168
2.449,0.878,0.012766
2.449,0.918,0.013770
2.449,0.959,0.014142
2.449,1.000,0.012600
2.510,-1.000,-0.015518
2.510,-0.959,-0.014788
2.510,-0.918,-0.014222
2.510,-0.878,-0.013506
2.510,-0.837,-0.012742
2.510,-0.796,-0.012532
2.510,-0.755,-0.012288
2.510,-0.714,-0.011732
2.510,-0.673,-0.011416
2.510,-0.633,-0.009168
2.510,-0.592,-0.008702
2.510,-0.551,-0.007948
2.510,-0.510,-0.007192
2.510,-0.469,-0.007552
2.510,-0.429,-0.007196
2.510,-0.388,-0.006534
2.510,-0.347,-0.006134
2.510,-0.306,-0.005378
2.510,-0.265,-0.005044
2.510,-0.224,-0.004280
2.510,-0.184,-0.003296
2.510,-0.143,-0.002632
2.510,-0.102,-0.002144
2.510,-0.061,-0.001720
2.510,-0.020,-0.001280
2.510,0.020,-0.000774
2.510,0.061,-0.000332
2.510,0.102,0.001690
2.510,0.143,0.002248
2.510,0.184,0.002900
2.510,0.224,0.003352
2.510,0.265,0.003840
2.510,0.306,0.004342
2.510,0.347,0.004874
2.510,0.388,0.004374
2.510,0.429,0.005024
2.510,0.469,0.005474
2.510,0.510,0.005984
2.510,0.551,0.006224
2.510,0.592,0.006700
2.510,0.633,0.007346
2.510,0.673,0.007976
2.510,0.714,0.008410
2.510,0.755,0.008682
2.510,0.796,0.009410
2.510,0.837,0.009678
2.510,0.878,0.010390
2.510,0.918,0.010854
2.510,0.959,0.013676
2.510,1.000,0.014270
2.571,-1.000,-0.014322
2.571,-0.959,-0.013672
2.571,-0.918,-0.011438
2.571,-0.878,-0.010864
2.571,-0.837,-0.010188
2.571,-0.796,-0.009212
2.571,-0.755,-0.010210
2.571,-0.714,-0.009658
2.571,-0.673,-0.009454
2.571,-0.633,-0.008838
2.571,-0.592,-0.008540
2.571,-0.551,-0.008024
2.571,-0.510,-0.006896
2.571,-0.469,-0.005740
2.571,-0.429,-0.005020
2.571,-0.388,-0.004076
2.571,-0.347,-0.003618
2.571,-0.306,-0.003182
2.571,-0.265,-0.002778
2.571,-0.224,-0.005104
2.571,-0.184,-0.004898
2.571,-0.143,-0.004208
2.571,-0.102,-0.003650
2.571,-0.061,-0.002944
2.571,-0.020,-0.001544
2.571,0.020,-0.001000
2.571,0.061,-0.000250
2.571,0.102,0.002716
2.571,0.143,0.003642
2.571,0.184,0.004110
2.571,0.224,0.004580
2.571,0.265,0.005198
2.571,0.306,0.005994
2.571,0.347,0.005708
2.571,0.388,0.006334
2.571,0.429,0.007112
2.571,0.469,0.007722
2.571,0.510,0.008208
2.571,0.551,0.008692
2.571,0.592,0.009122
2.571,0.633,0.010694
2.571,0.673,0.011268
2.571,0.714,0.011826
2.571,0.755,0.012612
2.571,0.796,0.013450
2.571,0.837,0.012706
2.571,0.878,0.013114
2.571,0.918,0.013750
2.571,0.959,0.014514
2.571,1.000,0.013220
2.633,-1.000,-0.014902
2.633,-0.959,-0.014324
2.633,-0.918,-0.013770
2.633,-0.878,-0.013262
2.633,-0.837,-0.011636
2.633,-0.796,-0.011038
2.633,-0.755,-0.010586
2.633,-0.714,-0.009838
2.633,-0.673,-0.009342
2.633,-0.633,-0.008920
2.633,-0.592,-0.008446
2.633,-0.551,-0.009328
2.633,-0.510,-0.008974
2.633,-0.469,-0.008286
2.633,-0.429,-0.007678
2.633,-0.388,-0.007252
2.633,-0.347,-0.006704
2.633,-0.306,-0.005568
2.633,-0.265,-0.005218
2.633,-0.224,-0.004666
2.633,-0.184,-0.002842
2.633,-0.143,-0.002364
2.633,-0.102,-0.001868
2.633,-0.061,-0.001364
2.633,-0.020,-0.000850
2.633,0.020,0.000520
2.633,0.061,0.001062
2.633,0.102,0.001574
2.633,0.143,0.001978
2.633,0.184,0.002884
2.633,0.224,0.003372
2.633,0.265,0.004052
2.633,0.306,0.004190
2.633,0.347,0.004608
2.633,0.388,0.005244
2.633,0.429,0.005946
2.633,0.469,0.006468
2.633,0.510,0.007016
2.633,0.551,0.009900
2.633,0.592,0.010516
2.633,0.633,0.011088
2.633,0.673,0.011404
2.633,0.714,0.010402
2.633,0.755,0.010914
2.633,0.796,0.011378
2.633,0.837,0.011962
2.633,0.878,0.011868
2.633,0.918,0.012862
2.633,0.959,0.013658
2.633,1.000,0.014206
2.694,-1.000,-0.014850
2.694,-0.959,-0.014326
2.694,-0.918,-0.013682
2.694,-0.878,-0.013258
2.694,-0.837,-0.012636
2.694,-0.796,-0.011964
2.694,-0.755,-0.011592
2.694,-0.714,-0.010870
2.694,-0.673,-0.010140
2.694,-0.633,-0.009538
2.694,-0.592,-0.007950
2.694,-0.551,-0.007310
2.694,-0.510,-0.006636
2.694,-0.469,-0.008178
2.694,-0.429,-0.007850
2.694,-0.388,-0.007324
2.694,-0.347,-0.007100
2.694,-0.306,-0.005218
2.694,-0.265,-0.004848
2.694,-0.224,-0.004184
2.694,-0.184,-0.003704
2.694,-0.143,-0.002988
2.694,-0.102,-0.002192
2.694,-0.061,-0.001660
2.694,-0.020,0.000598
2.694,0.020,0.001232
2.694,0.061,0.002106
2.694,0.102,0.002594
2.694,0.143,0.003022
2.694,0.184,0.003296
2.694,0.224,0.003958
2.694,0.265,0.003686
2.694,0.306,0.004338
2.694,0.347,0.004882
2.694,0.388,0.005146
2.694,0.429,0.005060
2.694,0.469,0.005884
2.694,0.510,0.006350
2.694,0.551,0.006850
2.694,0.592,0.009294
2.694,0.633,0.009644
2.694,0.673,0.009946
2.694,0.714,0.010330
2.694,0.755,0.010878
2.694,0.796,0.011870
2.694,0.837,0.012418
2.694,0.878,0.013080
2.694,0.918,0.014160
2.694,0.959,0.014652
2.694,1.000,0.015150
2.755,-1.000,-0.014362
2.755,-0.959,-0.013852
2.755,-0.918,-0.013510
2.755,-0.878,-0.013038
2.755,-0.837,-0.012458
2.755,-0.796,-0.011894
2.755,-0.755,-0.011132
2.755,-0.714,-0.010336
2.755,-0.673,-0.009534
2.755,-0.633,-0.008858
2.755,-0.592,-0.006976
2.755,-0.551,-0.006288
2.755,-0.510,-0.005734
2.755,-0.469,-0.005054
2.755,-0.429,-0.004410
2.755,-0.388,-0.003850
2.755,-0.347,-0.004158
2.755,-0.306,-0.003816
2.755,-0.265,-0.003294
2.755,-0.224,-0.002642
2.755,-0.184,-0.001932
2.755,-0.143,-0.001236
2.755,-0.102,-0.000756
2.755,-0.061,-0.001152
2.755,-0.020,-0.000748
2.755,0.020,0.000050
2.755,0.061,0.000788
2.755,0.102,0.001704
2.755,0.143,0.002456
2.755,0.184,0.003258
2.755,0.224,0.003844
2.755,0.265,0.004624
2.755,0.306,0.004022
2.755,0.347,0.004800
2.755,0.388,0.005218
2.755,0.429,0.006010
2.755,0.469,0.006782
2.755,0.510,0.009242
2.755,0.551,0.009988
2.755,0.592,0.010602
2.755,0.633,0.011224
2.755,0.673,0.011454
2.755,0.714,0.011938
2.755,0.755,0.012292
2.755,0.796,0.012422
2.755,0.837,0.012902
2.755,0.878,0.013468
2.755,0.918,0.014072
2.755,0.959,0.014656
2.755,1.000,0.014958
2.816,-1.000,-0.014606
2.816,-0.959,-0.014214
2.816,-0.918,-0.013664
2.816,-0.878,-0.011316
2.816,-0.837,-0.010870
2.816,-0.796,-0.010364
2.816,-0.755,-0.009694
2.816,-0.714,-0.009052
2.816,-0.673,-0.010178
2.816,-0.633,-0.009604
2.816,-0.592,-0.009006
2.816,-0.551,-0.008536
2.816,-0.510,-0.007944
2.816,-0.469,-0.007566
2.816,-0.429,-0.006934
2.816,-0.388,-0.006424
2.816,-0.347,-0.005840
2.816,-0.306,-0.005086
2.816,-0.265,-0.004558
2.816,-0.224,-0.003946
2.816,-0.184,-0.003016
2.816,-0.143,-0.002712
2.816,-0.102,-0.002140
2.816,-0.061,-0.001496
2.816,-0.020,-0.001102
2.816,0.020,-0.000682
2.816,0.061,-0.000328
2.816,0.102,0.000122
2.816,0.143,0.001146
2.816,0.184,0.006312
2.816,0.224,0.006956
2.816,0.265,0.007484
2.816,0.306,0.007806
2.816,0.347,0.008234
2.816,0.388,0.008788
2.816,0.429,0.009020
2.816,0.469,0.007078
2.816,0.510,0.007518
2.816,0.551,0.008012
2.816,0.592,0.008748
2.816,0.633,0.009132
2.816,0.673,0.009626
2.816,0.714,0.009046
2.816,0.755,0.009502
2.816,0.796,0.010244
2.816,0.837,0.010754
2.816,0.878,0.012858
2.816,0.918,0.013384
2.816,0.959,0.013722
2.816,1.000,0.014380
2.878,-1.000,-0.017384
2.878,-0.959,-0.016970
2.878,-0.918,-0.016532
2.878,-0.878,-0.015952
2.878,-0.837,-0.015570
2.878,-0.796,-0.015028
2.878,-0.755,-0.014172
2.878,-0.714,-0.011852
2.878,-0.673,-0.011278
2.878,-0.633,-0.010628
2.878,-0.592,-0.010040
2.878,-0.551,-0.009380
2.878,-0.510,-0.008670
2.878,-0.469,-0.008034
2.878,-0.429,-0.007402
2.878,-0.388,-0.006936
2.878,-0.347,-0.006336
2.878,-0.306,-0.005484
2.878,-0.265,-0.002052
2.878,-0.224,-0.001476
2.878,-0.184,-0.000868
2.878,-0.143,-0.002784
2.878,-0.102,-0.001876
2.878,-0.061,-0.001268
2.878,-0.020,-0.001020
2.878,0.020,-0.000074
2.878,0.061,0.000532
2.878,0.102,0.000730
2.878,0.143,0.003408
2.878,0.184,0.004010
2.878,0.224,0.004636
2.878,0.265,0.005328
2.878,0.306,0.005934
2.878,0.347,0.006328
2.878,0.388,0.007140
2.878,0.429,0.006208
2.878,0.469,0.006836
2.878,0.510,0.007286
2.878,0.551,0.007922
2.878,0.592,0.008324
2.878,0.633,0.008664
2.878,0.673,0.009022
2.878,0.714,0.009866
2.878,0.755,0.012136
2.878,0.796,0.012932
2.878,0.837,0.013388
2.878,0.878,0.013962
2.878,0.918,0.014606
2.878,0.959,0.015126
2.878,1.000,0.014008
2.939,-1.000,-0.015516
2.939,-0.959,-0.015050
2.939,-0.918,-0.014266
2.939,-0.878,-0.013788
2.939,-0.837,-0.013504
2.939,-0.796,-0.012802
2.939,-0.755,-0.011952
2.939,-0.714,-0.011346
2.939,-0.673,-0.010796
2.939,-0.633,-0.010036
2.939,-0.592,-0.009462
2.939,-0.551,-0.007036
2.939,-0.510,-0.006320
2.939,-0.469,-0.005608
2.939,-0.429,-0.006824
2.939,-0.388,-0.006188
2.939,-0.347,-0.005606
2.939,-0.306,-0.005120
2.939,-0.265,-0.004396
2.939,-0.224,-0.003614
2.939,-0.184,-0.002774
2.939,-0.143,-0.002184
2.939,-0.102,-0.001582
2.939,-0.061,-0.001084
2.939,-0.020,-0.000532
2.939,0.020,0.000262
2.939,0.061,0.001044
2.939,0.102,0.003254
2.939,0.143,0.004098
2.939,0.184,0.004674
2.939,0.224,0.005328
2.939,0.265,0.005472
2.939,0.306,0.005294
2.939,0.347,0.006084
2.939,0.388,0.006806
2.939,0.429,0.007622
2.939,0.469,0.008684
2.939,0.510,0.008994
2.939,0.551,0.009488
2.939,0.592,0.010336
2.939,0.633,0.011080
2.939,0.673,0.010128
2.939,0.714,0.010544
2.939,0.755,0.011280
2.939,0.796,0.011776
2.939,0.837,0.012514
2.939,0.878,0.012970
2.939,0.918,0.013796
2.939,0.959,0.014906
2.939,1.000,0.015534
3.000,-1.000,-0.013728
3.000,-0.959,-0.013060
3.000,-0.918,-0.012642
3.000,-0.878,-0.011874
3.000,-0.837,-0.013118
3.000,-0.796,-0.012360
3.000,-0.755,-0.011952
3.000,-0.714,-0.011674
3.000,-0.673,-0.011034
3.000,-0.633,-0.010236
3.000,-0.592,-0.009654
3.000,-0.551,-0.009142
3.000,-0.510,-0.008384
3.000,-0.469,-0.007794
3.000,-0.429,-0.007386
3.000,-0.388,-0.006494
3.000,-0.347,-0.005890
3.000,-0.306,-0.005242
3.000,-0.265,-0.004534
3.000,-0.224,-0.002004
3.000,-0.184,-0.001348
3.000,-0.143,-0.000840
3.000,-0.102,0.000102
3.000,-0.061,0.000794
3.000,-0.020,0.001202
3.000,0.020,-0.000400
3.000,0.061,0.000362
3.000,0.102,0.001046
3.000,0.143,0.001658
3.000,0.184,0.003010
3.000,0.224,0.003616
3.000,0.265,0.003834
3.000,0.306,0.004376
3.000,0.347,0.007366
3.000,0.388,0.007896
3.000,0.429,0.008484
3.000,0.469,0.009162
3.000,0.510,0.010020
3.000,0.551,0.010306
3.000,0.592,0.011212
3.000,0.633,0.010460
3.000,0.673,0.010984
3.000,0.714,0.011384
3.000,0.755,0.011596
3.000,0.796,0.012200
3.000,0.837,0.012868
3.000,0.878,0.013462
3.000,0.918,0.012780
3.000,0.959,0.013202
3.000,1.000,0.014080
