J,h,magnetization_density
0.000,-1.000,-0.821074
0.000,-0.959,-0.827430
0.000,-0.918,-0.834108
0.000,-0.878,-0.840876
0.000,-0.837,-0.847628
0.000,-0.796,-0.854288
0.000,-0.755,-0.861098
0.000,-0.714,-0.867958
0.000,-0.673,-0.874900
0.000,-0.633,-0.881900
0.000,-0.592,-0.889076
0.000,-0.551,-0.896464
0.000,-0.510,-0.903766
0.000,-0.469,-0.910928
0.000,-0.429,-0.918378
0.000,-0.388,-0.925776
0.000,-0.347,-0.933400
0.000,-0.306,-0.940952
0.000,-0.265,-0.948612
0.000,-0.224,-0.956348
0.000,-0.184,-0.964276
0.000,-0.143,-0.972282
0.000,-0.102,-0.980050
0.000,-0.061,-0.987992
0.000,-0.020,-0.995980
0.000,0.020,-0.996024
0.000,0.061,-0.987880
0.000,0.102,-0.979746
0.000,0.143,-0.971776
0.000,0.184,-0.963888
0.000,0.224,-0.955956
0.000,0.265,-0.947984
0.000,0.306,-0.940384
0.000,0.347,-0.932732
0.000,0.388,-0.924980
0.000,0.429,-0.917388
0.000,0.469,-0.909778
0.000,0.510,-0.902222
0.000,0.551,-0.894850
0.000,0.592,-0.887610
0.000,0.633,-0.880370
0.000,0.673,-0.872982
0.000,0.714,-0.866124
0.000,0.755,-0.858890
0.000,0.796,-0.851790
0.000,0.837,-0.844744
0.000,0.878,-0.837560
0.000,0.918,-0.830484
0.000,0.959,-0.823882
0.000,1.000,-0.816888
0.061,-1.000,-0.818828
0.061,-0.959,-0.825424
0.061,-0.918,-0.832074
0.061,-0.878,-0.838694
0.061,-0.837,-0.845328
0.061,-0.796,-0.852332
0.061,-0.755,-0.859416
0.061,-0.714,-0.866212
0.061,-0.673,-0.873360
0.061,-0.633,-0.880576
0.061,-0.592,-0.887754
0.061,-0.551,-0.895092
0.061,-0.510,-0.902442
0.061,-0.469,-0.909740
0.061,-0.429,-0.917260
0.061,-0.388,-0.924946
0.061,-0.347,-0.932374
0.061,-0.306,-0.940198
0.061,-0.265,-0.947838
0.061,-0.224,-0.951832
0.061,-0.184,-0.952178
0.061,-0.143,-0.952450
0.061,-0.102,-0.952802
0.061,-0.061,-0.952664
0.061,-0.020,-0.952628
0.061,0.020,-0.952582
0.061,0.061,-0.952736
0.061,0.102,-0.952702
0.061,0.143,-0.952352
0.061,0.184,-0.951772
0.061,0.224,-0.951256
0.061,0.265,-0.946966
0.061,0.306,-0.939166
0.061,0.347,-0.931528
0.061,0.388,-0.923820
0.061,0.429,-0.916046
0.061,0.469,-0.908668
0.061,0.510,-0.901098
0.061,0.551,-0.893548
0.061,0.592,-0.886202
0.061,0.633,-0.878688
0.061,0.673,-0.871328
0.061,0.714,-0.864182
0.061,0.755,-0.856932
0.061,0.796,-0.849750
0.061,0.837,-0.842516
0.061,0.878,-0.835518
0.061,0.918,-0.828542
0.061,0.959,-0.821652
0.061,1.000,-0.814830
0.122,-1.000,-0.814434
0.122,-0.959,-0.820884
0.122,-0.918,-0.827922
0.122,-0.878,-0.834802
0.122,-0.837,-0.841606
0.122,-0.796,-0.848484
0.122,-0.755,-0.855584
0.122,-0.714,-0.862542
0.122,-0.673,-0.869616
0.122,-0.633,-0.876882
0.122,-0.592,-0.883948
0.122,-0.551,-0.891364
0.122,-0.510,-0.898732
0.122,-0.469,-0.902646
0.122,-0.429,-0.903600
0.122,-0.388,-0.904310
0.122,-0.347,-0.905174
0.122,-0.306,-0.905932
0.122,-0.265,-0.906672
0.122,-0.224,-0.907018
0.122,-0.184,-0.907192
0.122,-0.143,-0.907398
0.122,-0.102,-0.907376
0.122,-0.061,-0.907628
0.122,-0.020,-0.907498
0.122,0.020,-0.907244
0.122,0.061,-0.907104
0.122,0.102,-0.907046
0.122,0.143,-0.907088
0.122,0.184,-0.906738
0.122,0.224,-0.906768
0.122,0.265,-0.906262
0.122,0.306,-0.905436
0.122,0.347,-0.904762
0.122,0.388,-0.903718
0.122,0.429,-0.902580
0.122,0.469,-0.901792
0.122,0.510,-0.897460
0.122,0.551,-0.890032
0.122,0.592,-0.882430
0.122,0.633,-0.875214
0.122,0.673,-0.867850
0.122,0.714,-0.860584
0.122,0.755,-0.853326
0.122,0.796,-0.845840
0.122,0.837,-0.838962
0.122,0.878,-0.831970
0.122,0.918,-0.824886
0.122,0.959,-0.818072
0.122,1.000,-0.811130
0.184,-1.000,-0.809056
0.184,-0.959,-0.815442
0.184,-0.918,-0.821926
0.184,-0.878,-0.828574
0.184,-0.837,-0.835196
0.184,-0.796,-0.842096
0.184,-0.755,-0.848934
0.184,-0.714,-0.853032
0.184,-0.673,-0.854494
0.184,-0.633,-0.855602
0.184,-0.592,-0.856688
0.184,-0.551,-0.857904
0.184,-0.510,-0.859098
0.184,-0.469,-0.860062
0.184,-0.429,-0.861188
0.184,-0.388,-0.862364
0.184,-0.347,-0.862828
0.184,-0.306,-0.863116
0.184,-0.265,-0.863196
0.184,-0.224,-0.863072
0.184,-0.184,-0.863312
0.184,-0.143,-0.863496
0.184,-0.102,-0.863664
0.184,-0.061,-0.863688
0.184,-0.020,-0.863938
0.184,0.020,-0.863818
0.184,0.061,-0.863494
0.184,0.102,-0.863552
0.184,0.143,-0.863288
0.184,0.184,-0.863144
0.184,0.224,-0.862974
0.184,0.265,-0.862514
0.184,0.306,-0.862348
0.184,0.347,-0.861942
0.184,0.388,-0.861548
0.184,0.429,-0.860218
0.184,0.469,-0.859204
0.184,0.510,-0.858062
0.184,0.551,-0.856768
0.184,0.592,-0.855646
0.184,0.633,-0.854488
0.184,0.673,-0.853274
0.184,0.714,-0.852242
0.184,0.755,-0.848018
0.184,0.796,-0.840730
0.184,0.837,-0.833926
0.184,0.878,-0.826974
0.184,0.918,-0.819838
0.184,0.959,-0.812958
0.184,1.000,-0.806176
0.245,-1.000,-0.800946
0.245,-0.959,-0.804984
0.245,-0.918,-0.806152
0.245,-0.878,-0.807484
0.245,-0.837,-0.808790
0.245,-0.796,-0.810254
0.245,-0.755,-0.811584
0.245,-0.714,-0.812662
0.245,-0.673,-0.814090
0.245,-0.633,-0.815216
0.245,-0.592,-0.816242
0.245,-0.551,-0.817448
0.245,-0.510,-0.818606
0.245,-0.469,-0.819280
0.245,-0.429,-0.819796
0.245,-0.388,-0.820098
0.245,-0.347,-0.820402
0.245,-0.306,-0.820470
0.245,-0.265,-0.820948
0.245,-0.224,-0.821038
0.245,-0.184,-0.821138
0.245,-0.143,-0.821500
0.245,-0.102,-0.821522
0.245,-0.061,-0.821654
0.245,-0.020,-0.822016
0.245,0.020,-0.821726
0.245,0.061,-0.821598
0.245,0.102,-0.821160
0.245,0.143,-0.821050
0.245,0.184,-0.820722
0.245,0.224,-0.820488
0.245,0.265,-0.820192
0.245,0.306,-0.819742
0.245,0.347,-0.819646
0.245,0.388,-0.819338
0.245,0.429,-0.819182
0.245,0.469,-0.818922
0.245,0.510,-0.817894
0.245,0.551,-0.816508
0.245,0.592,-0.815478
0.245,0.633,-0.814224
0.245,0.673,-0.812574
0.245,0.714,-0.811300
0.245,0.755,-0.810112
0.245,0.796,-0.808906
0.245,0.837,-0.807632
0.245,0.878,-0.806204
0.245,0.918,-0.804744
0.245,0.959,-0.803592
0.245,1.000,-0.799576
0.306,-1.000,-0.764240
0.306,-0.959,-0.765388
0.306,-0.918,-0.767160
0.306,-0.878,-0.768572
0.306,-0.837,-0.769840
0.306,-0.796,-0.771610
0.306,-0.755,-0.772914
0.306,-0.714,-0.774200
0.306,-0.673,-0.775562
0.306,-0.633,-0.777004
0.306,-0.592,-0.777844
0.306,-0.551,-0.778136
0.306,-0.510,-0.778624
0.306,-0.469,-0.778766
0.306,-0.429,-0.778828
0.306,-0.388,-0.779010
0.306,-0.347,-0.779094
0.306,-0.306,-0.779258
0.306,-0.265,-0.779652
0.306,-0.224,-0.779924
0.306,-0.184,-0.780580
0.306,-0.143,-0.780746
0.306,-0.102,-0.781164
0.306,-0.061,-0.781240
0.306,-0.020,-0.781654
0.306,0.020,-0.781586
0.306,0.061,-0.781070
0.306,0.102,-0.780880
0.306,0.143,-0.780440
0.306,0.184,-0.780074
0.306,0.224,-0.779828
0.306,0.265,-0.779162
0.306,0.306,-0.778852
0.306,0.347,-0.778732
0.306,0.388,-0.778508
0.306,0.429,-0.778092
0.306,0.469,-0.777756
0.306,0.510,-0.777476
0.306,0.551,-0.777066
0.306,0.592,-0.776916
0.306,0.633,-0.775982
0.306,0.673,-0.774594
0.306,0.714,-0.773256
0.306,0.755,-0.771500
0.306,0.796,-0.769838
0.306,0.837,-0.768338
0.306,0.878,-0.767038
0.306,0.918,-0.765432
0.306,0.959,-0.764018
0.306,1.000,-0.762422
0.367,-1.000,-0.726624
0.367,-0.959,-0.728086
0.367,-0.918,-0.729734
0.367,-0.878,-0.731198
0.367,-0.837,-0.732772
0.367,-0.796,-0.734358
0.367,-0.755,-0.735856
0.367,-0.714,-0.736532
0.367,-0.673,-0.736910
0.367,-0.633,-0.737296
0.367,-0.592,-0.737470
0.367,-0.551,-0.738092
0.367,-0.510,-0.738682
0.367,-0.469,-0.739080
0.367,-0.429,-0.739460
0.367,-0.388,-0.739650
0.367,-0.347,-0.740182
0.367,-0.306,-0.740562
0.367,-0.265,-0.740914
0.367,-0.224,-0.741226
0.367,-0.184,-0.741376
0.367,-0.143,-0.741618
0.367,-0.102,-0.741820
0.367,-0.061,-0.742048
0.367,-0.020,-0.742444
0.367,0.020,-0.742266
0.367,0.061,-0.741990
0.367,0.102,-0.741792
0.367,0.143,-0.741448
0.367,0.184,-0.740830
0.367,0.224,-0.740610
0.367,0.265,-0.740246
0.367,0.306,-0.739838
0.367,0.347,-0.739546
0.367,0.388,-0.739070
0.367,0.429,-0.738668
0.367,0.469,-0.738438
0.367,0.510,-0.737604
0.367,0.551,-0.737116
0.367,0.592,-0.736704
0.367,0.633,-0.736368
0.367,0.673,-0.735962
0.367,0.714,-0.735608
0.367,0.755,-0.734424
0.367,0.796,-0.732774
0.367,0.837,-0.731268
0.367,0.878,-0.729840
0.367,0.918,-0.728378
0.367,0.959,-0.726972
0.367,1.000,-0.725192
0.429,-1.000,-0.691220
0.429,-0.959,-0.692566
0.429,-0.918,-0.693952
0.429,-0.878,-0.695470
0.429,-0.837,-0.696324
0.429,-0.796,-0.696710
0.429,-0.755,-0.697260
0.429,-0.714,-0.697772
0.429,-0.673,-0.698360
0.429,-0.633,-0.698580
0.429,-0.592,-0.699026
0.429,-0.551,-0.699658
0.429,-0.510,-0.700042
0.429,-0.469,-0.700468
0.429,-0.429,-0.700784
0.429,-0.388,-0.701142
0.429,-0.347,-0.701482
0.429,-0.306,-0.702236
0.429,-0.265,-0.702834
0.429,-0.224,-0.703240
0.429,-0.184,-0.703572
0.429,-0.143,-0.704302
0.429,-0.102,-0.704828
0.429,-0.061,-0.705136
0.429,-0.020,-0.705528
0.429,0.020,-0.705476
0.429,0.061,-0.704842
0.429,0.102,-0.704262
0.429,0.143,-0.703578
0.429,0.184,-0.702888
0.429,0.224,-0.702456
0.429,0.265,-0.701772
0.429,0.306,-0.701462
0.429,0.347,-0.700994
0.429,0.388,-0.700534
0.429,0.429,-0.699840
0.429,0.469,-0.699600
0.429,0.510,-0.698872
0.429,0.551,-0.698362
0.429,0.592,-0.697922
0.429,0.633,-0.697416
0.429,0.673,-0.697004
0.429,0.714,-0.696788
0.429,0.755,-0.696086
0.429,0.796,-0.695716
0.429,0.837,-0.695172
0.429,0.878,-0.694200
0.429,0.918,-0.692496
0.429,0.959,-0.690928
0.429,1.000,-0.689350
0.490,-1.000,-0.656482
0.490,-0.959,-0.657522
0.490,-0.918,-0.658014
0.490,-0.878,-0.658244
0.490,-0.837,-0.658802
0.490,-0.796,-0.659450
0.490,-0.755,-0.659906
0.490,-0.714,-0.660334
0.490,-0.673,-0.660710
0.490,-0.633,-0.661092
0.490,-0.592,-0.661518
0.490,-0.551,-0.662064
0.490,-0.510,-0.662670
0.490,-0.469,-0.663202
0.490,-0.429,-0.663644
0.490,-0.388,-0.664356
0.490,-0.347,-0.664912
0.490,-0.306,-0.665446
0.490,-0.265,-0.665832
0.490,-0.224,-0.666340
0.490,-0.184,-0.666886
0.490,-0.143,-0.667384
0.490,-0.102,-0.667758
0.490,-0.061,-0.668524
0.490,-0.020,-0.669216
0.490,0.020,-0.669102
0.490,0.061,-0.668342
0.490,0.102,-0.667932
0.490,0.143,-0.667338
0.490,0.184,-0.666672
0.490,0.224,-0.665984
0.490,0.265,-0.665130
0.490,0.306,-0.664426
0.490,0.347,-0.663610
0.490,0.388,-0.662866
0.490,0.429,-0.662266
0.490,0.469,-0.661860
0.490,0.510,-0.661246
0.490,0.551,-0.660982
0.490,0.592,-0.660468
0.490,0.633,-0.660020
0.490,0.673,-0.659478
0.490,0.714,-0.659086
0.490,0.755,-0.658532
0.490,0.796,-0.657860
0.490,0.837,-0.657214
0.490,0.878,-0.656544
0.490,0.918,-0.655866
0.490,0.959,-0.655432
0.490,1.000,-0.654224
0.551,-1.000,-0.620534
0.551,-0.959,-0.621026
0.551,-0.918,-0.621264
0.551,-0.878,-0.621762
0.551,-0.837,-0.622420
0.551,-0.796,-0.624450
0.551,-0.755,-0.625194
0.551,-0.714,-0.625902
0.551,-0.673,-0.626618
0.551,-0.633,-0.627210
0.551,-0.592,-0.627854
0.551,-0.551,-0.628358
0.551,-0.510,-0.628970
0.551,-0.469,-0.629284
0.551,-0.429,-0.629728
0.551,-0.388,-0.630208
0.551,-0.347,-0.630762
0.551,-0.306,-0.631288
0.551,-0.265,-0.631686
0.551,-0.224,-0.632116
0.551,-0.184,-0.632702
0.551,-0.143,-0.633334
0.551,-0.102,-0.633980
0.551,-0.061,-0.634566
0.551,-0.020,-0.635008
0.551,0.020,-0.635022
0.551,0.061,-0.634368
0.551,0.102,-0.633696
0.551,0.143,-0.632986
0.551,0.184,-0.632364
0.551,0.224,-0.631580
0.551,0.265,-0.630904
0.551,0.306,-0.630040
0.551,0.347,-0.629234
0.551,0.388,-0.628622
0.551,0.429,-0.627758
0.551,0.469,-0.626972
0.551,0.510,-0.626210
0.551,0.551,-0.625280
0.551,0.592,-0.624776
0.551,0.633,-0.624078
0.551,0.673,-0.623214
0.551,0.714,-0.622538
0.551,0.755,-0.621826
0.551,0.796,-0.621136
0.551,0.837,-0.620328
0.551,0.878,-0.619554
0.551,0.918,-0.618860
0.551,0.959,-0.617922
0.551,1.000,-0.617142
0.612,-1.000,-0.586414
0.612,-0.959,-0.586902
0.612,-0.918,-0.587620
0.612,-0.878,-0.588186
0.612,-0.837,-0.588636
0.612,-0.796,-0.589174
0.612,-0.755,-0.589766
0.612,-0.714,-0.590396
0.612,-0.673,-0.590818
0.612,-0.633,-0.591470
0.612,-0.592,-0.592078
0.612,-0.551,-0.592690
0.612,-0.510,-0.593330
0.612,-0.469,-0.594016
0.612,-0.429,-0.594582
0.612,-0.388,-0.595040
0.612,-0.347,-0.595618
0.612,-0.306,-0.596362
0.612,-0.265,-0.596956
0.612,-0.224,-0.597356
0.612,-0.184,-0.597896
0.612,-0.143,-0.598450
0.612,-0.102,-0.598932
0.612,-0.061,-0.599418
0.612,-0.020,-0.599888
0.612,0.020,-0.599560
0.612,0.061,-0.598646
0.612,0.102,-0.597906
0.612,0.143,-0.597336
0.612,0.184,-0.596492
0.612,0.224,-0.595580
0.612,0.265,-0.594854
0.612,0.306,-0.594060
0.612,0.347,-0.593358
0.612,0.388,-0.592656
0.612,0.429,-0.591994
0.612,0.469,-0.591108
0.612,0.510,-0.590192
0.612,0.551,-0.589604
0.612,0.592,-0.588810
0.612,0.633,-0.588082
0.612,0.673,-0.587218
0.612,0.714,-0.586374
0.612,0.755,-0.585864
0.612,0.796,-0.584892
0.612,0.837,-0.584462
0.612,0.878,-0.583646
0.612,0.918,-0.582786
0.612,0.959,-0.582214
0.612,1.000,-0.581338
0.673,-1.000,-0.551540
0.673,-0.959,-0.552272
0.673,-0.918,-0.552776
0.673,-0.878,-0.553404
0.673,-0.837,-0.554052
0.673,-0.796,-0.554608
0.673,-0.755,-0.555198
0.673,-0.714,-0.555644
0.673,-0.673,-0.556242
0.673,-0.633,-0.556742
0.673,-0.592,-0.557360
0.673,-0.551,-0.558048
0.673,-0.510,-0.558668
0.673,-0.469,-0.559328
0.673,-0.429,-0.559970
0.673,-0.388,-0.560634
0.673,-0.347,-0.561210
0.673,-0.306,-0.561694
0.673,-0.265,-0.562316
0.673,-0.224,-0.562738
0.673,-0.184,-0.563196
0.673,-0.143,-0.563670
0.673,-0.102,-0.564240
0.673,-0.061,-0.564716
0.673,-0.020,-0.565260
0.673,0.020,-0.564868
0.673,0.061,-0.564038
0.673,0.102,-0.563200
0.673,0.143,-0.562326
0.673,0.184,-0.561542
0.673,0.224,-0.560690
0.673,0.265,-0.559642
0.673,0.306,-0.558876
0.673,0.347,-0.558232
0.673,0.388,-0.557456
0.673,0.429,-0.556564
0.673,0.469,-0.555696
0.673,0.510,-0.555048
0.673,0.551,-0.554220
0.673,0.592,-0.553594
0.673,0.633,-0.552774
0.673,0.673,-0.552106
0.673,0.714,-0.551374
0.673,0.755,-0.550572
0.673,0.796,-0.549802
0.673,0.837,-0.549008
0.673,0.878,-0.548150
0.673,0.918,-0.547318
0.673,0.959,-0.546508
0.673,1.000,-0.545874
0.735,-1.000,-0.517064
0.735,-0.959,-0.517790
0.735,-0.918,-0.518342
0.735,-0.878,-0.518990
0.735,-0.837,-0.519614
0.735,-0.796,-0.520416
0.735,-0.755,-0.521200
0.735,-0.714,-0.522128
0.735,-0.673,-0.522782
0.735,-0.633,-0.523390
0.735,-0.592,-0.523802
0.735,-0.551,-0.524314
0.735,-0.510,-0.524850
0.735,-0.469,-0.525280
0.735,-0.429,-0.525744
0.735,-0.388,-0.526156
0.735,-0.347,-0.526728
0.735,-0.306,-0.527102
0.735,-0.265,-0.527584
0.735,-0.224,-0.528042
0.735,-0.184,-0.528580
0.735,-0.143,-0.529256
0.735,-0.102,-0.529708
0.735,-0.061,-0.530266
0.735,-0.020,-0.530892
0.735,0.020,-0.530558
0.735,0.061,-0.529906
0.735,0.102,-0.529108
0.735,0.143,-0.528284
0.735,0.184,-0.527400
0.735,0.224,-0.526570
0.735,0.265,-0.525720
0.735,0.306,-0.524780
0.735,0.347,-0.523954
0.735,0.388,-0.523092
0.735,0.429,-0.522336
0.735,0.469,-0.521564
0.735,0.510,-0.520496
0.735,0.551,-0.519490
0.735,0.592,-0.518940
0.735,0.633,-0.518180
0.735,0.673,-0.517426
0.735,0.714,-0.516528
0.735,0.755,-0.515858
0.735,0.796,-0.514864
0.735,0.837,-0.514082
0.735,0.878,-0.513044
0.735,0.918,-0.512204
0.735,0.959,-0.511348
0.735,1.000,-0.510594
0.796,-1.000,-0.483728
0.796,-0.959,-0.484472
0.796,-0.918,-0.485170
0.796,-0.878,-0.485890
0.796,-0.837,-0.486386
0.796,-0.796,-0.486816
0.796,-0.755,-0.487430
0.796,-0.714,-0.488006
0.796,-0.673,-0.488360
0.796,-0.633,-0.488958
0.796,-0.592,-0.489604
0.796,-0.551,-0.490084
0.796,-0.510,-0.490712
0.796,-0.469,-0.491322
0.796,-0.429,-0.491902
0.796,-0.388,-0.492582
0.796,-0.347,-0.493122
0.796,-0.306,-0.493732
0.796,-0.265,-0.494170
0.796,-0.224,-0.494408
0.796,-0.184,-0.495042
0.796,-0.143,-0.495456
0.796,-0.102,-0.495880
0.796,-0.061,-0.496394
0.796,-0.020,-0.497080
0.796,0.020,-0.496984
0.796,0.061,-0.496130
0.796,0.102,-0.495334
0.796,0.143,-0.494416
0.796,0.184,-0.493628
0.796,0.224,-0.493014
0.796,0.265,-0.492114
0.796,0.306,-0.491136
0.796,0.347,-0.490428
0.796,0.388,-0.489502
0.796,0.429,-0.488692
0.796,0.469,-0.487832
0.796,0.510,-0.486642
0.796,0.551,-0.485722
0.796,0.592,-0.484912
0.796,0.633,-0.484014
0.796,0.673,-0.482980
0.796,0.714,-0.482078
0.796,0.755,-0.481194
0.796,0.796,-0.480432
0.796,0.837,-0.479722
0.796,0.878,-0.478920
0.796,0.918,-0.478038
0.796,0.959,-0.477116
0.796,1.000,-0.476310
0.857,-1.000,-0.450596
0.857,-0.959,-0.451120
0.857,-0.918,-0.451560
0.857,-0.878,-0.452174
0.857,-0.837,-0.452620
0.857,-0.796,-0.453108
0.857,-0.755,-0.453572
0.857,-0.714,-0.454302
0.857,-0.673,-0.454834
0.857,-0.633,-0.455482
0.857,-0.592,-0.456072
0.857,-0.551,-0.456514
0.857,-0.510,-0.457168
0.857,-0.469,-0.457776
0.857,-0.429,-0.458382
0.857,-0.388,-0.459096
0.857,-0.347,-0.459630
0.857,-0.306,-0.460136
0.857,-0.265,-0.460796
0.857,-0.224,-0.461530
0.857,-0.184,-0.462116
0.857,-0.143,-0.462756
0.857,-0.102,-0.463156
0.857,-0.061,-0.463902
0.857,-0.020,-0.464518
0.857,0.020,-0.464168
0.857,0.061,-0.463222
0.857,0.102,-0.462234
0.857,0.143,-0.461080
0.857,0.184,-0.460302
0.857,0.224,-0.459410
0.857,0.265,-0.458506
0.857,0.306,-0.457576
0.857,0.347,-0.456814
0.857,0.388,-0.455826
0.857,0.429,-0.454978
0.857,0.469,-0.454172
0.857,0.510,-0.453104
0.857,0.551,-0.452270
0.857,0.592,-0.451510
0.857,0.633,-0.450582
0.857,0.673,-0.449668
0.857,0.714,-0.448866
0.857,0.755,-0.447878
0.857,0.796,-0.447220
0.857,0.837,-0.446084
0.857,0.878,-0.445268
0.857,0.918,-0.444316
0.857,0.959,-0.443486
0.857,1.000,-0.442436
0.918,-1.000,-0.417314
0.918,-0.959,-0.417884
0.918,-0.918,-0.418378
0.918,-0.878,-0.419034
0.918,-0.837,-0.419596
0.918,-0.796,-0.420272
0.918,-0.755,-0.420662
0.918,-0.714,-0.421206
0.918,-0.673,-0.421864
0.918,-0.633,-0.422524
0.918,-0.592,-0.423024
0.918,-0.551,-0.423528
0.918,-0.510,-0.424118
0.918,-0.469,-0.425002
0.918,-0.429,-0.425588
0.918,-0.388,-0.426218
0.918,-0.347,-0.426696
0.918,-0.306,-0.427378
0.918,-0.265,-0.428242
0.918,-0.224,-0.428736
0.918,-0.184,-0.429230
0.918,-0.143,-0.429808
0.918,-0.102,-0.430254
0.918,-0.061,-0.430888
0.918,-0.020,-0.431472
0.918,0.020,-0.431400
0.918,0.061,-0.430522
0.918,0.102,-0.429682
0.918,0.143,-0.428504
0.918,0.184,-0.427640
0.918,0.224,-0.426672
0.918,0.265,-0.425538
0.918,0.306,-0.424776
0.918,0.347,-0.423882
0.918,0.388,-0.422858
0.918,0.429,-0.421838
0.918,0.469,-0.421078
0.918,0.510,-0.420120
0.918,0.551,-0.419506
0.918,0.592,-0.418562
0.918,0.633,-0.417592
0.918,0.673,-0.416534
0.918,0.714,-0.415636
0.918,0.755,-0.414664
0.918,0.796,-0.413804
0.918,0.837,-0.412968
0.918,0.878,-0.412324
0.918,0.918,-0.411580
0.918,0.959,-0.410912
0.918,1.000,-0.409976
0.980,-1.000,-0.384904
0.980,-0.959,-0.385602
0.980,-0.918,-0.386198
0.980,-0.878,-0.386800
0.980,-0.837,-0.387206
0.980,-0.796,-0.387738
0.980,-0.755,-0.388214
0.980,-0.714,-0.389044
0.980,-0.673,-0.389432
0.980,-0.633,-0.389980
0.980,-0.592,-0.390624
0.980,-0.551,-0.391412
0.980,-0.510,-0.391966
0.980,-0.469,-0.392480
0.980,-0.429,-0.393186
0.980,-0.388,-0.393960
0.980,-0.347,-0.394318
0.980,-0.306,-0.395108
0.980,-0.265,-0.395526
0.980,-0.224,-0.396268
0.980,-0.184,-0.396834
0.980,-0.143,-0.397358
0.980,-0.102,-0.397672
0.980,-0.061,-0.398136
0.980,-0.020,-0.398820
0.980,0.020,-0.398724
0.980,0.061,-0.397918
0.980,0.102,-0.397046
0.980,0.143,-0.396096
0.980,0.184,-0.395138
0.980,0.224,-0.394480
0.980,0.265,-0.393688
0.980,0.306,-0.392834
0.980,0.347,-0.391834
0.980,0.388,-0.390692
0.980,0.429,-0.389704
0.980,0.469,-0.388716
0.980,0.510,-0.387596
0.980,0.551,-0.386728
0.980,0.592,-0.385818
0.980,0.633,-0.385184
0.980,0.673,-0.384184
0.980,0.714,-0.383238
0.980,0.755,-0.382476
0.980,0.796,-0.381716
0.980,0.837,-0.380700
0.980,0.878,-0.379784
0.980,0.918,-0.379002
0.980,0.959,-0.378238
0.980,1.000,-0.377356
1.041,-1.000,-0.353282
1.041,-0.959,-0.353830
1.041,-0.918,-0.354352
1.041,-0.878,-0.354996
1.041,-0.837,-0.355394
1.041,-0.796,-0.355948
1.041,-0.755,-0.356662
1.041,-0.714,-0.357344
1.041,-0.673,-0.357832
1.041,-0.633,-0.358302
1.041,-0.592,-0.358656
1.041,-0.551,-0.359426
1.041,-0.510,-0.359938
1.041,-0.469,-0.360538
1.041,-0.429,-0.361076
1.041,-0.388,-0.361604
1.041,-0.347,-0.361958
1.041,-0.306,-0.362748
1.041,-0.265,-0.363266
1.041,-0.224,-0.363764
1.041,-0.184,-0.364668
1.041,-0.143,-0.365372
1.041,-0.102,-0.365892
1.041,-0.061,-0.366390
1.041,-0.020,-0.366908
1.041,0.020,-0.366864
1.041,0.061,-0.366116
1.041,0.102,-0.364908
1.041,0.143,-0.363944
1.041,0.184,-0.362846
1.041,0.224,-0.362096
1.041,0.265,-0.361298
1.041,0.306,-0.360416
1.041,0.347,-0.359474
1.041,0.388,-0.358860
1.041,0.429,-0.358016
1.041,0.469,-0.357276
1.041,0.510,-0.356340
1.041,0.551,-0.355506
1.041,0.592,-0.354570
1.041,0.633,-0.353392
1.041,0.673,-0.352352
1.041,0.714,-0.351380
1.041,0.755,-0.350670
1.041,0.796,-0.349852
1.041,0.837,-0.348858
1.041,0.878,-0.347958
1.041,0.918,-0.347062
1.041,0.959,-0.346392
1.041,1.000,-0.345432
1.102,-1.000,-0.322660
1.102,-0.959,-0.323198
1.102,-0.918,-0.323656
1.102,-0.878,-0.324272
1.102,-0.837,-0.324522
1.102,-0.796,-0.324858
1.102,-0.755,-0.325028
1.102,-0.714,-0.325494
1.102,-0.673,-0.326074
1.102,-0.633,-0.326838
1.102,-0.592,-0.327150
1.102,-0.551,-0.327596
1.102,-0.510,-0.328208
1.102,-0.469,-0.328660
1.102,-0.429,-0.329346
1.102,-0.388,-0.329904
1.102,-0.347,-0.330566
1.102,-0.306,-0.331228
1.102,-0.265,-0.331840
1.102,-0.224,-0.332376
1.102,-0.184,-0.333186
1.102,-0.143,-0.333462
1.102,-0.102,-0.334076
1.102,-0.061,-0.334670
1.102,-0.020,-0.335136
1.102,0.020,-0.334832
1.102,0.061,-0.334116
1.102,0.102,-0.333190
1.102,0.143,-0.332412
1.102,0.184,-0.331430
1.102,0.224,-0.330578
1.102,0.265,-0.329982
1.102,0.306,-0.329268
1.102,0.347,-0.328110
1.102,0.388,-0.327020
1.102,0.429,-0.326050
1.102,0.469,-0.325286
1.102,0.510,-0.324458
1.102,0.551,-0.323574
1.102,0.592,-0.322764
1.102,0.633,-0.321956
1.102,0.673,-0.320952
1.102,0.714,-0.320346
1.102,0.755,-0.319502
1.102,0.796,-0.318614
1.102,0.837,-0.317596
1.102,0.878,-0.316720
1.102,0.918,-0.315888
1.102,0.959,-0.315182
1.102,1.000,-0.314298
1.163,-1.000,-0.291646
1.163,-0.959,-0.292152
1.163,-0.918,-0.292530
1.163,-0.878,-0.293294
1.163,-0.837,-0.293546
1.163,-0.796,-0.293990
1.163,-0.755,-0.294236
1.163,-0.714,-0.294796
1.163,-0.673,-0.295334
1.163,-0.633,-0.295796
1.163,-0.592,-0.296288
1.163,-0.551,-0.296618
1.163,-0.510,-0.297130
1.163,-0.469,-0.297592
1.163,-0.429,-0.298344
1.163,-0.388,-0.298874
1.163,-0.347,-0.299424
1.163,-0.306,-0.299972
1.163,-0.265,-0.300594
1.163,-0.224,-0.301182
1.163,-0.184,-0.301954
1.163,-0.143,-0.302332
1.163,-0.102,-0.303080
1.163,-0.061,-0.303606
1.163,-0.020,-0.304246
1.163,0.020,-0.304010
1.163,0.061,-0.303172
1.163,0.102,-0.301868
1.163,0.143,-0.300916
1.163,0.184,-0.300044
1.163,0.224,-0.299118
1.163,0.265,-0.298282
1.163,0.306,-0.297376
1.163,0.347,-0.296562
1.163,0.388,-0.295616
1.163,0.429,-0.294664
1.163,0.469,-0.293978
1.163,0.510,-0.293430
1.163,0.551,-0.292652
1.163,0.592,-0.291696
1.163,0.633,-0.290808
1.163,0.673,-0.289772
1.163,0.714,-0.289114
1.163,0.755,-0.288290
1.163,0.796,-0.287340
1.163,0.837,-0.286586
1.163,0.878,-0.285636
1.163,0.918,-0.284974
1.163,0.959,-0.284174
1.163,1.000,-0.283342
1.224,-1.000,-0.261078
1.224,-0.959,-0.261336
1.224,-0.918,-0.261862
1.224,-0.878,-0.262506
1.224,-0.837,-0.262966
1.224,-0.796,-0.263398
1.224,-0.755,-0.263856
1.224,-0.714,-0.264228
1.224,-0.673,-0.264852
1.224,-0.633,-0.265336
1.224,-0.592,-0.265900
1.224,-0.551,-0.266322
1.224,-0.510,-0.266624
1.224,-0.469,-0.267250
1.224,-0.429,-0.267934
1.224,-0.388,-0.268340
1.224,-0.347,-0.269132
1.224,-0.306,-0.269500
1.224,-0.265,-0.269996
1.224,-0.224,-0.270336
1.224,-0.184,-0.270956
1.224,-0.143,-0.271474
1.224,-0.102,-0.271882
1.224,-0.061,-0.272266
1.224,-0.020,-0.272772
1.224,0.020,-0.272556
1.224,0.061,-0.271698
1.224,0.102,-0.270738
1.224,0.143,-0.269876
1.224,0.184,-0.268890
1.224,0.224,-0.268320
1.224,0.265,-0.267492
1.224,0.306,-0.266520
1.224,0.347,-0.265310
1.224,0.388,-0.264572
1.224,0.429,-0.263858
1.224,0.469,-0.263120
1.224,0.510,-0.262332
1.224,0.551,-0.261528
1.224,0.592,-0.260924
1.224,0.633,-0.260028
1.224,0.673,-0.259230
1.224,0.714,-0.258258
1.224,0.755,-0.257688
1.224,0.796,-0.257082
1.224,0.837,-0.256270
1.224,0.878,-0.255374
1.224,0.918,-0.254536
1.224,0.959,-0.253880
1.224,1.000,-0.253042
1.286,-1.000,-0.231832
1.286,-0.959,-0.232034
1.286,-0.918,-0.232566
1.286,-0.878,-0.232824
1.286,-0.837,-0.233040
1.286,-0.796,-0.233352
1.286,-0.755,-0.233558
1.286,-0.714,-0.234020
1.286,-0.673,-0.234636
1.286,-0.633,-0.235216
1.286,-0.592,-0.235934
1.286,-0.551,-0.236478
1.286,-0.510,-0.237008
1.286,-0.469,-0.237368
1.286,-0.429,-0.237870
1.286,-0.388,-0.238254
1.286,-0.347,-0.238596
1.286,-0.306,-0.238878
1.286,-0.265,-0.239316
1.286,-0.224,-0.239874
1.286,-0.184,-0.240196
1.286,-0.143,-0.240624
1.286,-0.102,-0.241044
1.286,-0.061,-0.241216
1.286,-0.020,-0.241776
1.286,0.020,-0.241472
1.286,0.061,-0.240696
1.286,0.102,-0.239922
1.286,0.143,-0.238816
1.286,0.184,-0.238036
1.286,0.224,-0.237396
1.286,0.265,-0.236770
1.286,0.306,-0.235954
1.286,0.347,-0.235138
1.286,0.388,-0.234248
1.286,0.429,-0.233728
1.286,0.469,-0.232842
1.286,0.510,-0.232048
1.286,0.551,-0.231124
1.286,0.592,-0.230350
1.286,0.633,-0.229746
1.286,0.673,-0.229098
1.286,0.714,-0.228228
1.286,0.755,-0.227462
1.286,0.796,-0.226836
1.286,0.837,-0.226216
1.286,0.878,-0.225530
1.286,0.918,-0.224836
1.286,0.959,-0.224166
1.286,1.000,-0.223482
1.347,-1.000,-0.203116
1.347,-0.959,-0.203246
1.347,-0.918,-0.203442
1.347,-0.878,-0.203942
1.347,-0.837,-0.204308
1.347,-0.796,-0.204576
1.347,-0.755,-0.204884
1.347,-0.714,-0.205096
1.347,-0.673,-0.205734
1.347,-0.633,-0.205920
1.347,-0.592,-0.206162
1.347,-0.551,-0.206368
1.347,-0.510,-0.206618
1.347,-0.469,-0.207004
1.347,-0.429,-0.207346
1.347,-0.388,-0.207958
1.347,-0.347,-0.208178
1.347,-0.306,-0.208524
1.347,-0.265,-0.209268
1.347,-0.224,-0.209582
1.347,-0.184,-0.210022
1.347,-0.143,-0.210462
1.347,-0.102,-0.210948
1.347,-0.061,-0.211168
1.347,-0.020,-0.211446
1.347,0.020,-0.211190
1.347,0.061,-0.210290
1.347,0.102,-0.209472
1.347,0.143,-0.208636
1.347,0.184,-0.207950
1.347,0.224,-0.207026
1.347,0.265,-0.206240
1.347,0.306,-0.205582
1.347,0.347,-0.205040
1.347,0.388,-0.204344
1.347,0.429,-0.203812
1.347,0.469,-0.203130
1.347,0.510,-0.202424
1.347,0.551,-0.201750
1.347,0.592,-0.201086
1.347,0.633,-0.200376
1.347,0.673,-0.199698
1.347,0.714,-0.198972
1.347,0.755,-0.198196
1.347,0.796,-0.197234
1.347,0.837,-0.196446
1.347,0.878,-0.195696
1.347,0.918,-0.195084
1.347,0.959,-0.194440
1.347,1.000,-0.193718
1.408,-1.000,-0.175110
1.408,-0.959,-0.175228
1.408,-0.918,-0.175410
1.408,-0.878,-0.175586
1.408,-0.837,-0.175522
1.408,-0.796,-0.175764
1.408,-0.755,-0.176042
1.408,-0.714,-0.175912
1.408,-0.673,-0.176246
1.408,-0.633,-0.176508
1.408,-0.592,-0.176826
1.408,-0.551,-0.177032
1.408,-0.510,-0.177170
1.408,-0.469,-0.177602
1.408,-0.429,-0.177872
1.408,-0.388,-0.178078
1.408,-0.347,-0.178452
1.408,-0.306,-0.178844
1.408,-0.265,-0.179198
1.408,-0.224,-0.179524
1.408,-0.184,-0.179830
1.408,-0.143,-0.180292
1.408,-0.102,-0.180422
1.408,-0.061,-0.180804
1.408,-0.020,-0.181372
1.408,0.020,-0.181262
1.408,0.061,-0.180672
1.408,0.102,-0.180236
1.408,0.143,-0.179950
1.408,0.184,-0.179058
1.408,0.224,-0.178454
1.408,0.265,-0.177672
1.408,0.306,-0.177102
1.408,0.347,-0.176416
1.408,0.388,-0.175650
1.408,0.429,-0.175146
1.408,0.469,-0.174542
1.408,0.510,-0.173976
1.408,0.551,-0.172928
1.408,0.592,-0.172114
1.408,0.633,-0.171446
1.408,0.673,-0.170882
1.408,0.714,-0.169978
1.408,0.755,-0.169222
1.408,0.796,-0.168796
1.408,0.837,-0.168098
1.408,0.878,-0.167306
1.408,0.918,-0.166914
1.408,0.959,-0.166184
1.408,1.000,-0.165524
1.469,-1.000,-0.146224
1.469,-0.959,-0.146806
1.469,-0.918,-0.146910
1.469,-0.878,-0.147070
1.469,-0.837,-0.147128
1.469,-0.796,-0.147500
1.469,-0.755,-0.147688
1.469,-0.714,-0.147808
1.469,-0.673,-0.148098
1.469,-0.633,-0.148224
1.469,-0.592,-0.148556
1.469,-0.551,-0.148898
1.469,-0.510,-0.149148
1.469,-0.469,-0.149288
1.469,-0.429,-0.149448
1.469,-0.388,-0.149638
1.469,-0.347,-0.149896
1.469,-0.306,-0.150108
1.469,-0.265,-0.150466
1.469,-0.224,-0.150688
1.469,-0.184,-0.151134
1.469,-0.143,-0.151554
1.469,-0.102,-0.152174
1.469,-0.061,-0.152350
1.469,-0.020,-0.152676
1.469,0.020,-0.152426
1.469,0.061,-0.151920
1.469,0.102,-0.151458
1.469,0.143,-0.150534
1.469,0.184,-0.149652
1.469,0.224,-0.149180
1.469,0.265,-0.148702
1.469,0.306,-0.148092
1.469,0.347,-0.147402
1.469,0.388,-0.147120
1.469,0.429,-0.146436
1.469,0.469,-0.145512
1.469,0.510,-0.144830
1.469,0.551,-0.144126
1.469,0.592,-0.143408
1.469,0.633,-0.142740
1.469,0.673,-0.142392
1.469,0.714,-0.141904
1.469,0.755,-0.141120
1.469,0.796,-0.140390
1.469,0.837,-0.139740
1.469,0.878,-0.139190
1.469,0.918,-0.138438
1.469,0.959,-0.137744
1.469,1.000,-0.136928
1.531,-1.000,-0.119144
1.531,-0.959,-0.119274
1.531,-0.918,-0.119604
1.531,-0.878,-0.119720
1.531,-0.837,-0.119462
1.531,-0.796,-0.119826
1.531,-0.755,-0.119970
1.531,-0.714,-0.120432
1.531,-0.673,-0.120736
1.531,-0.633,-0.121042
1.531,-0.592,-0.121302
1.531,-0.551,-0.121650
1.531,-0.510,-0.121724
1.531,-0.469,-0.121820
1.531,-0.429,-0.122064
1.531,-0.388,-0.121980
1.531,-0.347,-0.122432
1.531,-0.306,-0.122640
1.531,-0.265,-0.122774
1.531,-0.224,-0.123010
1.531,-0.184,-0.123338
1.531,-0.143,-0.123582
1.531,-0.102,-0.123678
1.531,-0.061,-0.123810
1.531,-0.020,-0.124166
1.531,0.020,-0.123996
1.531,0.061,-0.123238
1.531,0.102,-0.122672
1.531,0.143,-0.122320
1.531,0.184,-0.121600
1.531,0.224,-0.120748
1.531,0.265,-0.120084
1.531,0.306,-0.119468
1.531,0.347,-0.118854
1.531,0.388,-0.118112
1.531,0.429,-0.117552
1.531,0.469,-0.116904
1.531,0.510,-0.116354
1.531,0.551,-0.115920
1.531,0.592,-0.115362
1.531,0.633,-0.114998
1.531,0.673,-0.114430
1.531,0.714,-0.113802
1.531,0.755,-0.112962
1.531,0.796,-0.112142
1.531,0.837,-0.111856
1.531,0.878,-0.111244
1.531,0.918,-0.110548
1.531,0.959,-0.109950
1.531,1.000,-0.109306
1.592,-1.000,-0.093376
1.592,-0.959,-0.093636
1.592,-0.918,-0.093548
1.592,-0.878,-0.093498
1.592,-0.837,-0.093408
1.592,-0.796,-0.093502
1.592,-0.755,-0.093770
1.592,-0.714,-0.093798
1.592,-0.673,-0.094006
1.592,-0.633,-0.094020
1.592,-0.592,-0.094360
1.592,-0.551,-0.094452
1.592,-0.510,-0.094532
1.592,-0.469,-0.095042
1.592,-0.429,-0.095300
1.592,-0.388,-0.095366
1.592,-0.347,-0.095438
1.592,-0.306,-0.095526
1.592,-0.265,-0.095580
1.592,-0.224,-0.095402
1.592,-0.184,-0.095444
1.592,-0.143,-0.095536
1.592,-0.102,-0.095776
1.592,-0.061,-0.096064
1.592,-0.020,-0.096160
1.592,0.020,-0.095894
1.592,0.061,-0.095370
1.592,0.102,-0.094782
1.592,0.143,-0.094306
1.592,0.184,-0.093514
1.592,0.224,-0.092940
1.592,0.265,-0.092326
1.592,0.306,-0.091714
1.592,0.347,-0.091030
1.592,0.388,-0.090622
1.592,0.429,-0.090144
1.592,0.469,-0.089488
1.592,0.510,-0.088900
1.592,0.551,-0.088260
1.592,0.592,-0.087810
1.592,0.633,-0.086840
1.592,0.673,-0.086302
1.592,0.714,-0.085802
1.592,0.755,-0.085426
1.592,0.796,-0.084974
1.592,0.837,-0.084256
1.592,0.878,-0.083900
1.592,0.918,-0.083516
1.592,0.959,-0.082864
1.592,1.000,-0.082226
1.653,-1.000,-0.067640
1.653,-0.959,-0.067682
1.653,-0.918,-0.067932
1.653,-0.878,-0.067944
1.653,-0.837,-0.068148
1.653,-0.796,-0.068096
1.653,-0.755,-0.068216
1.653,-0.714,-0.068536
1.653,-0.673,-0.068488
1.653,-0.633,-0.068386
1.653,-0.592,-0.068444
1.653,-0.551,-0.068354
1.653,-0.510,-0.068460
1.653,-0.469,-0.068466
1.653,-0.429,-0.068284
1.653,-0.388,-0.068284
1.653,-0.347,-0.068178
1.653,-0.306,-0.068184
1.653,-0.265,-0.068078
1.653,-0.224,-0.068310
1.653,-0.184,-0.068540
1.653,-0.143,-0.068644
1.653,-0.102,-0.068662
1.653,-0.061,-0.068958
1.653,-0.020,-0.068914
1.653,0.020,-0.068606
1.653,0.061,-0.067998
1.653,0.102,-0.067392
1.653,0.143,-0.067034
1.653,0.184,-0.066294
1.653,0.224,-0.065740
1.653,0.265,-0.065092
1.653,0.306,-0.064552
1.653,0.347,-0.064148
1.653,0.388,-0.063542
1.653,0.429,-0.062952
1.653,0.469,-0.062452
1.653,0.510,-0.061732
1.653,0.551,-0.061378
1.653,0.592,-0.060726
1.653,0.633,-0.060244
1.653,0.673,-0.059770
1.653,0.714,-0.059186
1.653,0.755,-0.058664
1.653,0.796,-0.058196
1.653,0.837,-0.057754
1.653,0.878,-0.057116
1.653,0.918,-0.056690
1.653,0.959,-0.056098
1.653,1.000,-0.055850
1.714,-1.000,-0.043108
1.714,-0.959,-0.043346
1.714,-0.918,-0.043436
1.714,-0.878,-0.043142
1.714,-0.837,-0.042780
1.714,-0.796,-0.042860
1.714,-0.755,-0.042924
1.714,-0.714,-0.042930
1.714,-0.673,-0.042904
1.714,-0.633,-0.042832
1.714,-0.592,-0.043048
1.714,-0.551,-0.042782
1.714,-0.510,-0.042554
1.714,-0.469,-0.042496
1.714,-0.429,-0.042392
1.714,-0.388,-0.042204
1.714,-0.347,-0.042036
1.714,-0.306,-0.041978
1.714,-0.265,-0.042080
1.714,-0.224,-0.041922
1.714,-0.184,-0.041944
1.714,-0.143,-0.042044
1.714,-0.102,-0.042032
1.714,-0.061,-0.042034
1.714,-0.020,-0.041922
1.714,0.020,-0.041702
1.714,0.061,-0.041174
1.714,0.102,-0.040630
1.714,0.143,-0.040154
1.714,0.184,-0.039806
1.714,0.224,-0.039220
1.714,0.265,-0.038674
1.714,0.306,-0.038242
1.714,0.347,-0.037606
1.714,0.388,-0.037160
1.714,0.429,-0.036734
1.714,0.469,-0.036330
1.714,0.510,-0.035648
1.714,0.551,-0.035216
1.714,0.592,-0.034812
1.714,0.633,-0.034178
1.714,0.673,-0.033768
1.714,0.714,-0.033224
1.714,0.755,-0.032834
1.714,0.796,-0.032356
1.714,0.837,-0.032090
1.714,0.878,-0.031880
1.714,0.918,-0.031436
1.714,0.959,-0.030936
1.714,1.000,-0.030516
1.776,-1.000,-0.018962
1.776,-0.959,-0.018824
1.776,-0.918,-0.018700
1.776,-0.878,-0.018622
1.776,-0.837,-0.018550
1.776,-0.796,-0.018508
1.776,-0.755,-0.018344
1.776,-0.714,-0.018124
1.776,-0.673,-0.018250
1.776,-0.633,-0.018098
1.776,-0.592,-0.017870
1.776,-0.551,-0.017690
1.776,-0.510,-0.017300
1.776,-0.469,-0.017060
1.776,-0.429,-0.017084
1.776,-0.388,-0.016966
1.776,-0.347,-0.016878
1.776,-0.306,-0.016732
1.776,-0.265,-0.016744
1.776,-0.224,-0.016892
1.776,-0.184,-0.016596
1.776,-0.143,-0.016434
1.776,-0.102,-0.016144
1.776,-0.061,-0.015964
1.776,-0.020,-0.015830
1.776,0.020,-0.015424
1.776,0.061,-0.015108
1.776,0.102,-0.014504
1.776,0.143,-0.013944
1.776,0.184,-0.013612
1.776,0.224,-0.013106
1.776,0.265,-0.012678
1.776,0.306,-0.012402
1.776,0.347,-0.012006
1.776,0.388,-0.011732
1.776,0.429,-0.011582
1.776,0.469,-0.010928
1.776,0.510,-0.010542
1.776,0.551,-0.010102
1.776,0.592,-0.009716
1.776,0.633,-0.009272
1.776,0.673,-0.008870
1.776,0.714,-0.008530
1.776,0.755,-0.007934
1.776,0.796,-0.007492
1.776,0.837,-0.007388
1.776,0.878,-0.007232
1.776,0.918,-0.006544
1.776,0.959,-0.006214
1.776,1.000,-0.005958
1.837,-1.000,0.004658
1.837,-0.959,0.004486
1.837,-0.918,0.004746
1.837,-0.878,0.005126
1.837,-0.837,0.005354
1.837,-0.796,0.005536
1.837,-0.755,0.005646
1.837,-0.714,0.006200
1.837,-0.673,0.006132
1.837,-0.633,0.006296
1.837,-0.592,0.006536
1.837,-0.551,0.006588
1.837,-0.510,0.006684
1.837,-0.469,0.006868
1.837,-0.429,0.007098
1.837,-0.388,0.007394
1.837,-0.347,0.007646
1.837,-0.306,0.007870
1.837,-0.265,0.008130
1.837,-0.224,0.008462
1.837,-0.184,0.008568
1.837,-0.143,0.008914
1.837,-0.102,0.009040
1.837,-0.061,0.009106
1.837,-0.020,0.009186
1.837,0.020,0.009474
1.837,0.061,0.009964
1.837,0.102,0.010390
1.837,0.143,0.010772
1.837,0.184,0.011400
1.837,0.224,0.011866
1.837,0.265,0.012296
1.837,0.306,0.012744
1.837,0.347,0.013004
1.837,0.388,0.013172
1.837,0.429,0.013300
1.837,0.469,0.013742
1.837,0.510,0.013976
1.837,0.551,0.014130
1.837,0.592,0.014422
1.837,0.633,0.014652
1.837,0.673,0.014950
1.837,0.714,0.015278
1.837,0.755,0.015782
1.837,0.796,0.016176
1.837,0.837,0.016434
1.837,0.878,0.016624
1.837,0.918,0.016922
1.837,0.959,0.017168
1.837,1.000,0.017634
1.898,-1.000,0.027748
1.898,-0.959,0.027978
1.898,-0.918,0.028382
1.898,-0.878,0.028582
1.898,-0.837,0.028772
1.898,-0.796,0.028776
1.898,-0.755,0.028970
1.898,-0.714,0.029290
1.898,-0.673,0.029534
1.898,-0.633,0.029910
1.898,-0.592,0.030086
1.898,-0.551,0.030310
1.898,-0.510,0.030592
1.898,-0.469,0.031114
1.898,-0.429,0.031160
1.898,-0.388,0.031534
1.898,-0.347,0.031752
1.898,-0.306,0.032128
1.898,-0.265,0.032264
1.898,-0.224,0.032366
1.898,-0.184,0.032296
1.898,-0.143,0.032564
1.898,-0.102,0.032968
1.898,-0.061,0.033120
1.898,-0.020,0.033590
1.898,0.020,0.033962
1.898,0.061,0.034390
1.898,0.102,0.034596
1.898,0.143,0.034804
1.898,0.184,0.035360
1.898,0.224,0.035622
1.898,0.265,0.035906
1.898,0.306,0.036266
1.898,0.347,0.036628
1.898,0.388,0.036744
1.898,0.429,0.037030
1.898,0.469,0.037258
1.898,0.510,0.037288
1.898,0.551,0.037680
1.898,0.592,0.037918
1.898,0.633,0.038238
1.898,0.673,0.038474
1.898,0.714,0.038852
1.898,0.755,0.039052
1.898,0.796,0.039170
1.898,0.837,0.038978
1.898,0.878,0.039392
1.898,0.918,0.039652
1.898,0.959,0.040094
1.898,1.000,0.040338
1.959,-1.000,0.049652
1.959,-0.959,0.050222
1.959,-0.918,0.050552
1.959,-0.878,0.051096
1.959,-0.837,0.051630
1.959,-0.796,0.052026
1.959,-0.755,0.052108
1.959,-0.714,0.052404
1.959,-0.673,0.052614
1.959,-0.633,0.052964
1.959,-0.592,0.053040
1.959,-0.551,0.053256
1.959,-0.510,0.053494
1.959,-0.469,0.053914
1.959,-0.429,0.054132
1.959,-0.388,0.054720
1.959,-0.347,0.054804
1.959,-0.306,0.054988
1.959,-0.265,0.055186
1.959,-0.224,0.055678
1.959,-0.184,0.056006
1.959,-0.143,0.056270
1.959,-0.102,0.056588
1.959,-0.061,0.056734
1.959,-0.020,0.056976
1.959,0.020,0.057376
1.959,0.061,0.057694
1.959,0.102,0.057924
1.959,0.143,0.057994
1.959,0.184,0.058180
1.959,0.224,0.058588
1.959,0.265,0.058714
1.959,0.306,0.059032
1.959,0.347,0.059342
1.959,0.388,0.059278
1.959,0.429,0.059708
1.959,0.469,0.059888
1.959,0.510,0.059984
1.959,0.551,0.060124
1.959,0.592,0.060272
1.959,0.633,0.060738
1.959,0.673,0.061174
1.959,0.714,0.061376
1.959,0.755,0.061530
1.959,0.796,0.061810
1.959,0.837,0.061880
1.959,0.878,0.062168
1.959,0.918,0.062514
1.959,0.959,0.062774
1.959,1.000,0.062804
2.020,-1.000,0.070942
2.020,-0.959,0.071378
2.020,-0.918,0.071868
2.020,-0.878,0.072314
2.020,-0.837,0.072914
2.020,-0.796,0.073152
2.020,-0.755,0.073382
2.020,-0.714,0.073946
2.020,-0.673,0.074144
2.020,-0.633,0.074722
2.020,-0.592,0.074912
2.020,-0.551,0.075572
2.020,-0.510,0.076066
2.020,-0.469,0.076420
2.020,-0.429,0.076656
2.020,-0.388,0.076908
2.020,-0.347,0.077004
2.020,-0.306,0.077232
2.020,-0.265,0.077398
2.020,-0.224,0.077880
2.020,-0.184,0.078158
2.020,-0.143,0.078640
2.020,-0.102,0.078998
2.020,-0.061,0.079436
2.020,-0.020,0.079702
2.020,0.020,0.079980
2.020,0.061,0.079946
2.020,0.102,0.080186
2.020,0.143,0.080288
2.020,0.184,0.080542
2.020,0.224,0.080738
2.020,0.265,0.080774
2.020,0.306,0.080840
2.020,0.347,0.080884
2.020,0.388,0.081078
2.020,0.429,0.081418
2.020,0.469,0.081786
2.020,0.510,0.081836
2.020,0.551,0.082224
2.020,0.592,0.082402
2.020,0.633,0.082650
2.020,0.673,0.082852
2.020,0.714,0.083130
2.020,0.755,0.083268
2.020,0.796,0.083524
2.020,0.837,0.083608
2.020,0.878,0.083728
2.020,0.918,0.083890
2.020,0.959,0.084124
2.020,1.000,0.084236
2.082,-1.000,0.090902
2.082,-0.959,0.091410
2.082,-0.918,0.091768
2.082,-0.878,0.092370
2.082,-0.837,0.092802
2.082,-0.796,0.093514
2.082,-0.755,0.093894
2.082,-0.714,0.094380
2.082,-0.673,0.095050
2.082,-0.633,0.095664
2.082,-0.592,0.095844
2.082,-0.551,0.096298
2.082,-0.510,0.096804
2.082,-0.469,0.097434
2.082,-0.429,0.097752
2.082,-0.388,0.098326
2.082,-0.347,0.098478
2.082,-0.306,0.098926
2.082,-0.265,0.098960
2.082,-0.224,0.099324
2.082,-0.184,0.099728
2.082,-0.143,0.100124
2.082,-0.102,0.100544
2.082,-0.061,0.100624
2.082,-0.020,0.101094
2.082,0.020,0.101392
2.082,0.061,0.101422
2.082,0.102,0.101590
2.082,0.143,0.101734
2.082,0.184,0.102032
2.082,0.224,0.102310
2.082,0.265,0.102516
2.082,0.306,0.102720
2.082,0.347,0.102702
2.082,0.388,0.102632
2.082,0.429,0.102562
2.082,0.469,0.102702
2.082,0.510,0.102820
2.082,0.551,0.102838
2.082,0.592,0.103036
2.082,0.633,0.103314
2.082,0.673,0.103732
2.082,0.714,0.103828
2.082,0.755,0.103836
2.082,0.796,0.103924
2.082,0.837,0.104010
2.082,0.878,0.104052
2.082,0.918,0.104588
2.082,0.959,0.104736
2.082,1.000,0.104642
2.143,-1.000,0.109464
2.143,-0.959,0.110158
2.143,-0.918,0.110902
2.143,-0.878,0.111472
2.143,-0.837,0.112204
2.143,-0.796,0.112938
2.143,-0.755,0.113484
2.143,-0.714,0.114144
2.143,-0.673,0.114660
2.143,-0.633,0.115236
2.143,-0.592,0.115412
2.143,-0.551,0.115974
2.143,-0.510,0.116340
2.143,-0.469,0.116676
2.143,-0.429,0.117280
2.143,-0.388,0.118002
2.143,-0.347,0.118426
2.143,-0.306,0.119100
2.143,-0.265,0.119564
2.143,-0.224,0.120006
2.143,-0.184,0.120098
2.143,-0.143,0.120720
2.143,-0.102,0.121326
2.143,-0.061,0.121888
2.143,-0.020,0.122606
2.143,0.020,0.122968
2.143,0.061,0.123102
2.143,0.102,0.122822
2.143,0.143,0.122864
2.143,0.184,0.122876
2.143,0.224,0.122810
2.143,0.265,0.122902
2.143,0.306,0.122826
2.143,0.347,0.122962
2.143,0.388,0.123046
2.143,0.429,0.123072
2.143,0.469,0.123088
2.143,0.510,0.122978
2.143,0.551,0.122916
2.143,0.592,0.122960
2.143,0.633,0.123008
2.143,0.673,0.123336
2.143,0.714,0.123458
2.143,0.755,0.123502
2.143,0.796,0.123672
2.143,0.837,0.123550
2.143,0.878,0.123808
2.143,0.918,0.123928
2.143,0.959,0.124104
2.143,1.000,0.124086
2.204,-1.000,0.127570
2.204,-0.959,0.128184
2.204,-0.918,0.128826
2.204,-0.878,0.129680
2.204,-0.837,0.130308
2.204,-0.796,0.130822
2.204,-0.755,0.131272
2.204,-0.714,0.131854
2.204,-0.673,0.132578
2.204,-0.633,0.133428
2.204,-0.592,0.133952
2.204,-0.551,0.134644
2.204,-0.510,0.135216
2.204,-0.469,0.135882
2.204,-0.429,0.136410
2.204,-0.388,0.137068
2.204,-0.347,0.137458
2.204,-0.306,0.138322
2.204,-0.265,0.138890
2.204,-0.224,0.139250
2.204,-0.184,0.140108
2.204,-0.143,0.140706
2.204,-0.102,0.141324
2.204,-0.061,0.141786
2.204,-0.020,0.142582
2.204,0.020,0.143128
2.204,0.061,0.142958
2.204,0.102,0.142874
2.204,0.143,0.142990
2.204,0.184,0.142872
2.204,0.224,0.142524
2.204,0.265,0.142638
2.204,0.306,0.142524
2.204,0.347,0.142368
2.204,0.388,0.141516
2.204,0.429,0.141570
2.204,0.469,0.141680
2.204,0.510,0.141730
2.204,0.551,0.141744
2.204,0.592,0.141830
2.204,0.633,0.141426
2.204,0.673,0.141360
2.204,0.714,0.141324
2.204,0.755,0.141316
2.204,0.796,0.141370
2.204,0.837,0.141370
2.204,0.878,0.141342
2.204,0.918,0.141142
2.204,0.959,0.141292
2.204,1.000,0.141394
2.265,-1.000,0.144196
2.265,-0.959,0.144950
2.265,-0.918,0.145574
2.265,-0.878,0.146206
2.265,-0.837,0.146878
2.265,-0.796,0.147498
2.265,-0.755,0.148306
2.265,-0.714,0.149072
2.265,-0.673,0.149856
2.265,-0.633,0.150658
2.265,-0.592,0.151378
2.265,-0.551,0.151928
2.265,-0.510,0.152540
2.265,-0.469,0.153044
2.265,-0.429,0.153814
2.265,-0.388,0.154352
2.265,-0.347,0.154960
2.265,-0.306,0.155950
2.265,-0.265,0.156722
2.265,-0.224,0.157314
2.265,-0.184,0.157942
2.265,-0.143,0.158592
2.265,-0.102,0.159164
2.265,-0.061,0.159628
2.265,-0.020,0.160358
2.265,0.020,0.160798
2.265,0.061,0.160866
2.265,0.102,0.160834
2.265,0.143,0.160968
2.265,0.184,0.160584
2.265,0.224,0.160520
2.265,0.265,0.160622
2.265,0.306,0.160520
2.265,0.347,0.160372
2.265,0.388,0.160184
2.265,0.429,0.160200
2.265,0.469,0.160108
2.265,0.510,0.160036
2.265,0.551,0.159770
2.265,0.592,0.159718
2.265,0.633,0.159498
2.265,0.673,0.159596
2.265,0.714,0.159428
2.265,0.755,0.159370
2.265,0.796,0.159262
2.265,0.837,0.159258
2.265,0.878,0.159218
2.265,0.918,0.159050
2.265,0.959,0.159140
2.265,1.000,0.158820
2.327,-1.000,0.160236
2.327,-0.959,0.160990
2.327,-0.918,0.161928
2.327,-0.878,0.162828
2.327,-0.837,0.163618
2.327,-0.796,0.164276
2.327,-0.755,0.164924
2.327,-0.714,0.165474
2.327,-0.673,0.166222
2.327,-0.633,0.167026
2.327,-0.592,0.167602
2.327,-0.551,0.168498
2.327,-0.510,0.169252
2.327,-0.469,0.169982
2.327,-0.429,0.170566
2.327,-0.388,0.171260
2.327,-0.347,0.172096
2.327,-0.306,0.172712
2.327,-0.265,0.173374
2.327,-0.224,0.174070
2.327,-0.184,0.175116
2.327,-0.143,0.175720
2.327,-0.102,0.176492
2.327,-0.061,0.177376
2.327,-0.020,0.178260
2.327,0.020,0.178750
2.327,0.061,0.178472
2.327,0.102,0.178312
2.327,0.143,0.178120
2.327,0.184,0.177802
2.327,0.224,0.177888
2.327,0.265,0.177910
2.327,0.306,0.177988
2.327,0.347,0.177938
2.327,0.388,0.177828
2.327,0.429,0.177786
2.327,0.469,0.177690
2.327,0.510,0.177724
2.327,0.551,0.177548
2.327,0.592,0.177486
2.327,0.633,0.177194
2.327,0.673,0.176848
2.327,0.714,0.176574
2.327,0.755,0.176446
2.327,0.796,0.176154
2.327,0.837,0.175932
2.327,0.878,0.175740
2.327,0.918,0.175488
2.327,0.959,0.175382
2.327,1.000,0.175130
2.388,-1.000,0.175624
2.388,-0.959,0.176356
2.388,-0.918,0.177220
2.388,-0.878,0.178074
2.388,-0.837,0.178766
2.388,-0.796,0.179632
2.388,-0.755,0.180300
2.388,-0.714,0.180982
2.388,-0.673,0.181666
2.388,-0.633,0.182456
2.388,-0.592,0.183214
2.388,-0.551,0.184080
2.388,-0.510,0.184866
2.388,-0.469,0.185588
2.388,-0.429,0.186314
2.388,-0.388,0.187214
2.388,-0.347,0.188222
2.388,-0.306,0.189004
2.388,-0.265,0.189934
2.388,-0.224,0.190766
2.388,-0.184,0.191610
2.388,-0.143,0.192402
2.388,-0.102,0.193110
2.388,-0.061,0.193800
2.388,-0.020,0.194478
2.388,0.020,0.194940
2.388,0.061,0.194926
2.388,0.102,0.194726
2.388,0.143,0.194622
2.388,0.184,0.194488
2.388,0.224,0.194612
2.388,0.265,0.194554
2.388,0.306,0.194576
2.388,0.347,0.194510
2.388,0.388,0.194268
2.388,0.429,0.194062
2.388,0.469,0.193820
2.388,0.510,0.193698
2.388,0.551,0.193506
2.388,0.592,0.193418
2.388,0.633,0.193108
2.388,0.673,0.192830
2.388,0.714,0.192648
2.388,0.755,0.192490
2.388,0.796,0.192222
2.388,0.837,0.191868
2.388,0.878,0.191608
2.388,0.918,0.191328
2.388,0.959,0.191096
2.388,1.000,0.190794
2.449,-1.000,0.189928
2.449,-0.959,0.190620
2.449,-0.918,0.191442
2.449,-0.878,0.192426
2.449,-0.837,0.193040
2.449,-0.796,0.193912
2.449,-0.755,0.194656
2.449,-0.714,0.195384
2.449,-0.673,0.196404
2.449,-0.633,0.197202
2.449,-0.592,0.197992
2.449,-0.551,0.198986
2.449,-0.510,0.199920
2.449,-0.469,0.200868
2.449,-0.429,0.201494
2.449,-0.388,0.202330
2.449,-0.347,0.203106
2.449,-0.306,0.204054
2.449,-0.265,0.204898
2.449,-0.224,0.205844
2.449,-0.184,0.206718
2.449,-0.143,0.207776
2.449,-0.102,0.208678
2.449,-0.061,0.209534
2.449,-0.020,0.210570
2.449,0.020,0.211146
2.449,0.061,0.211130
2.449,0.102,0.210790
2.449,0.143,0.210632
2.449,0.184,0.210262
2.449,0.224,0.209918
2.449,0.265,0.209632
2.449,0.306,0.209582
2.449,0.347,0.209414
2.449,0.388,0.209022
2.449,0.429,0.208838
2.449,0.469,0.208876
2.449,0.510,0.208708
2.449,0.551,0.208506
2.449,0.592,0.208120
2.449,0.633,0.207736
2.449,0.673,0.207724
2.449,0.714,0.207596
2.449,0.755,0.207504
2.449,0.796,0.207152
2.449,0.837,0.206884
2.449,0.878,0.206680
2.449,0.918,0.206224
2.449,0.959,0.205912
2.449,1.000,0.205620
2.510,-1.000,0.202702
2.510,-0.959,0.203618
2.510,-0.918,0.204766
2.510,-0.878,0.205562
2.510,-0.837,0.206592
2.510,-0.796,0.207510
2.510,-0.755,0.208462
2.510,-0.714,0.209162
2.510,-0.673,0.210194
2.510,-0.633,0.211200
2.510,-0.592,0.211842
2.510,-0.551,0.213014
2.510,-0.510,0.213892
2.510,-0.469,0.214782
2.510,-0.429,0.215708
2.510,-0.388,0.216434
2.510,-0.347,0.217430
2.510,-0.306,0.218174
2.510,-0.265,0.219234
2.510,-0.224,0.220270
2.510,-0.184,0.221188
2.510,-0.143,0.222154
2.510,-0.102,0.223224
2.510,-0.061,0.224234
2.510,-0.020,0.225076
2.510,0.020,0.225362
2.510,0.061,0.225400
2.510,0.102,0.225262
2.510,0.143,0.225068
2.510,0.184,0.224822
2.510,0.224,0.224476
2.510,0.265,0.224092
2.510,0.306,0.223980
2.510,0.347,0.223652
2.510,0.388,0.223334
2.510,0.429,0.223048
2.510,0.469,0.222818
2.510,0.510,0.222546
2.510,0.551,0.222234
2.510,0.592,0.221920
2.510,0.633,0.221528
2.510,0.673,0.221444
2.510,0.714,0.221360
2.510,0.755,0.221318
2.510,0.796,0.221134
2.510,0.837,0.220596
2.510,0.878,0.220246
2.510,0.918,0.220056
2.510,0.959,0.219952
2.510,1.000,0.219552
2.571,-1.000,0.214898
2.571,-0.959,0.215916
2.571,-0.918,0.216738
2.571,-0.878,0.217826
2.571,-0.837,0.218700
2.571,-0.796,0.219810
2.571,-0.755,0.220778
2.571,-0.714,0.221666
2.571,-0.673,0.222548
2.571,-0.633,0.223736
2.571,-0.592,0.224788
2.571,-0.551,0.225980
2.571,-0.510,0.226974
2.571,-0.469,0.227950
2.571,-0.429,0.229052
2.571,-0.388,0.230066
2.571,-0.347,0.231026
2.571,-0.306,0.231900
2.571,-0.265,0.232778
2.571,-0.224,0.233918
2.571,-0.184,0.235058
2.571,-0.143,0.235882
2.571,-0.102,0.236782
2.571,-0.061,0.237698
2.571,-0.020,0.238714
2.571,0.020,0.239118
2.571,0.061,0.238866
2.571,0.102,0.238400
2.571,0.143,0.237940
2.571,0.184,0.237766
2.571,0.224,0.237596
2.571,0.265,0.237330
2.571,0.306,0.237212
2.571,0.347,0.236750
2.571,0.388,0.236464
2.571,0.429,0.236308
2.571,0.469,0.235984
2.571,0.510,0.235696
2.571,0.551,0.235396
2.571,0.592,0.235082
2.571,0.633,0.234684
2.571,0.673,0.234542
2.571,0.714,0.234282
2.571,0.755,0.233926
2.571,0.796,0.233708
2.571,0.837,0.233180
2.571,0.878,0.232936
2.571,0.918,0.232590
2.571,0.959,0.232492
2.571,1.000,0.232026
2.633,-1.000,0.225836
2.633,-0.959,0.227070
2.633,-0.918,0.228194
2.633,-0.878,0.229170
2.633,-0.837,0.230170
2.633,-0.796,0.231244
2.633,-0.755,0.232540
2.633,-0.714,0.233646
2.633,-0.673,0.234766
2.633,-0.633,0.235786
2.633,-0.592,0.236900
2.633,-0.551,0.237890
2.633,-0.510,0.238716
2.633,-0.469,0.239724
2.633,-0.429,0.240828
2.633,-0.388,0.241986
2.633,-0.347,0.243012
2.633,-0.306,0.244166
2.633,-0.265,0.245212
2.633,-0.224,0.246134
2.633,-0.184,0.247460
2.633,-0.143,0.248372
2.633,-0.102,0.249508
2.633,-0.061,0.250596
2.633,-0.020,0.251522
2.633,0.020,0.251876
2.633,0.061,0.251400
2.633,0.102,0.250658
2.633,0.143,0.250512
2.633,0.184,0.250164
2.633,0.224,0.249918
2.633,0.265,0.249576
2.633,0.306,0.249478
2.633,0.347,0.249090
2.633,0.388,0.248580
2.633,0.429,0.248422
2.633,0.469,0.248238
2.633,0.510,0.247872
2.633,0.551,0.247714
2.633,0.592,0.247410
2.633,0.633,0.246910
2.633,0.673,0.246420
2.633,0.714,0.246208
2.633,0.755,0.245800
2.633,0.796,0.245558
2.633,0.837,0.245182
2.633,0.878,0.244818
2.633,0.918,0.244462
2.633,0.959,0.244084
2.633,1.000,0.243902
2.694,-1.000,0.236428
2.694,-0.959,0.237494
2.694,-0.918,0.238670
2.694,-0.878,0.239806
2.694,-0.837,0.241116
2.694,-0.796,0.242018
2.694,-0.755,0.243154
2.694,-0.714,0.244234
2.694,-0.673,0.245332
2.694,-0.633,0.246454
2.694,-0.592,0.247740
2.694,-0.551,0.248890
2.694,-0.510,0.249790
2.694,-0.469,0.250556
2.694,-0.429,0.251636
2.694,-0.388,0.252680
2.694,-0.347,0.253724
2.694,-0.306,0.255164
2.694,-0.265,0.256232
2.694,-0.224,0.257354
2.694,-0.184,0.258470
2.694,-0.143,0.259476
2.694,-0.102,0.260774
2.694,-0.061,0.262018
2.694,-0.020,0.263002
2.694,0.020,0.263364
2.694,0.061,0.263224
2.694,0.102,0.262678
2.694,0.143,0.262342
2.694,0.184,0.261930
2.694,0.224,0.261396
2.694,0.265,0.261236
2.694,0.306,0.261032
2.694,0.347,0.260632
2.694,0.388,0.260224
2.694,0.429,0.259672
2.694,0.469,0.259482
2.694,0.510,0.259078
2.694,0.551,0.258962
2.694,0.592,0.258420
2.694,0.633,0.257730
2.694,0.673,0.257564
2.694,0.714,0.257356
2.694,0.755,0.256990
2.694,0.796,0.256624
2.694,0.837,0.256206
2.694,0.878,0.255672
2.694,0.918,0.255114
2.694,0.959,0.255064
2.694,1.000,0.254466
2.755,-1.000,0.245586
2.755,-0.959,0.246916
2.755,-0.918,0.248242
2.755,-0.878,0.249320
2.755,-0.837,0.250446
2.755,-0.796,0.251492
2.755,-0.755,0.252594
2.755,-0.714,0.253664
2.755,-0.673,0.254704
2.755,-0.633,0.255886
2.755,-0.592,0.257016
2.755,-0.551,0.258462
2.755,-0.510,0.259556
2.755,-0.469,0.260664
2.755,-0.429,0.261726
2.755,-0.388,0.262660
2.755,-0.347,0.263798
2.755,-0.306,0.265002
2.755,-0.265,0.266150
2.755,-0.224,0.267178
2.755,-0.184,0.268406
2.755,-0.143,0.269614
2.755,-0.102,0.270764
2.755,-0.061,0.272106
2.755,-0.020,0.273230
2.755,0.020,0.273814
2.755,0.061,0.273482
2.755,0.102,0.273072
2.755,0.143,0.272854
2.755,0.184,0.272438
2.755,0.224,0.272044
2.755,0.265,0.271614
2.755,0.306,0.271444
2.755,0.347,0.271026
2.755,0.388,0.270672
2.755,0.429,0.270260
2.755,0.469,0.270190
2.755,0.510,0.269970
2.755,0.551,0.269550
2.755,0.592,0.268960
2.755,0.633,0.268184
2.755,0.673,0.267738
2.755,0.714,0.267354
2.755,0.755,0.266956
2.755,0.796,0.266694
2.755,0.837,0.266230
2.755,0.878,0.265352
2.755,0.918,0.264744
2.755,0.959,0.264354
2.755,1.000,0.263762
2.816,-1.000,0.253730
2.816,-0.959,0.255110
2.816,-0.918,0.256558
2.816,-0.878,0.257708
2.816,-0.837,0.258976
2.816,-0.796,0.260026
2.816,-0.755,0.261302
2.816,-0.714,0.262258
2.816,-0.673,0.263460
2.816,-0.633,0.264514
2.816,-0.592,0.265808
2.816,-0.551,0.267086
2.816,-0.510,0.268148
2.816,-0.469,0.269354
2.816,-0.429,0.270608
2.816,-0.388,0.271762
2.816,-0.347,0.272956
2.816,-0.306,0.274046
2.816,-0.265,0.275124
2.816,-0.224,0.276132
2.816,-0.184,0.277420
2.816,-0.143,0.278600
2.816,-0.102,0.279708
2.816,-0.061,0.281132
2.816,-0.020,0.282562
2.816,0.020,0.282918
2.816,0.061,0.282544
2.816,0.102,0.282336
2.816,0.143,0.282236
2.816,0.184,0.281846
2.816,0.224,0.281418
2.816,0.265,0.281274
2.816,0.306,0.280870
2.816,0.347,0.280580
2.816,0.388,0.280264
2.816,0.429,0.279860
2.816,0.469,0.279510
2.816,0.510,0.278984
2.816,0.551,0.278750
2.816,0.592,0.278302
2.816,0.633,0.277702
2.816,0.673,0.276952
2.816,0.714,0.276422
2.816,0.755,0.275742
2.816,0.796,0.275434
2.816,0.837,0.274798
2.816,0.878,0.274258
2.816,0.918,0.273876
2.816,0.959,0.273344
2.816,1.000,0.272876
2.878,-1.000,0.261240
2.878,-0.959,0.262406
2.878,-0.918,0.263510
2.878,-0.878,0.264736
2.878,-0.837,0.266010
2.878,-0.796,0.267370
2.878,-0.755,0.268710
2.878,-0.714,0.270036
2.878,-0.673,0.271270
2.878,-0.633,0.272372
2.878,-0.592,0.273510
2.878,-0.551,0.274692
2.878,-0.510,0.275826
2.878,-0.469,0.277150
2.878,-0.429,0.278180
2.878,-0.388,0.279204
2.878,-0.347,0.280402
2.878,-0.306,0.281544
2.878,-0.265,0.282850
2.878,-0.224,0.284148
2.878,-0.184,0.285870
2.878,-0.143,0.287194
2.878,-0.102,0.288398
2.878,-0.061,0.289774
2.878,-0.020,0.291188
2.878,0.020,0.291696
2.878,0.061,0.291354
2.878,0.102,0.290986
2.878,0.143,0.290578
2.878,0.184,0.290112
2.878,0.224,0.289858
2.878,0.265,0.289518
2.878,0.306,0.289130
2.878,0.347,0.288706
2.878,0.388,0.288358
2.878,0.429,0.287740
2.878,0.469,0.287276
2.878,0.510,0.286774
2.878,0.551,0.286334
2.878,0.592,0.286014
2.878,0.633,0.285356
2.878,0.673,0.284920
2.878,0.714,0.284150
2.878,0.755,0.283676
2.878,0.796,0.283360
2.878,0.837,0.282882
2.878,0.878,0.282404
2.878,0.918,0.281862
2.878,0.959,0.281112
2.878,1.000,0.280796
2.939,-1.000,0.267476
2.939,-0.959,0.268740
2.939,-0.918,0.270036
2.939,-0.878,0.271066
2.939,-0.837,0.272110
2.939,-0.796,0.273468
2.939,-0.755,0.274766
2.939,-0.714,0.276154
2.939,-0.673,0.277414
2.939,-0.633,0.278726
2.939,-0.592,0.280020
2.939,-0.551,0.281252
2.939,-0.510,0.282256
2.939,-0.469,0.283368
2.939,-0.429,0.284746
2.939,-0.388,0.286066
2.939,-0.347,0.287438
2.939,-0.306,0.288698
2.939,-0.265,0.290136
2.939,-0.224,0.291426
2.939,-0.184,0.292982
2.939,-0.143,0.294364
2.939,-0.102,0.295928
2.939,-0.061,0.297190
2.939,-0.020,0.298642
2.939,0.020,0.299138
2.939,0.061,0.298864
2.939,0.102,0.298300
2.939,0.143,0.297940
2.939,0.184,0.297428
2.939,0.224,0.297092
2.939,0.265,0.296426
2.939,0.306,0.296172
2.939,0.347,0.295638
2.939,0.388,0.295204
2.939,0.429,0.294812
2.939,0.469,0.294348
2.939,0.510,0.293798
2.939,0.551,0.293024
2.939,0.592,0.292706
2.939,0.633,0.292226
2.939,0.673,0.291752
2.939,0.714,0.290970
2.939,0.755,0.290580
2.939,0.796,0.290372
2.939,0.837,0.290048
2.939,0.878,0.289710
2.939,0.918,0.289002
2.939,0.959,0.288394
2.939,1.000,0.287506
3.000,-1.000,0.272480
3.000,-0.959,0.273750
3.000,-0.918,0.275134
3.000,-0.878,0.276422
3.000,-0.837,0.277726
3.000,-0.796,0.279134
3.000,-0.755,0.280536
3.000,-0.714,0.281670
3.000,-0.673,0.283014
3.000,-0.633,0.284334
3.000,-0.592,0.285654
3.000,-0.551,0.287116
3.000,-0.510,0.288198
3.000,-0.469,0.289520
3.000,-0.429,0.290934
3.000,-0.388,0.292200
3.000,-0.347,0.293222
3.000,-0.306,0.294472
3.000,-0.265,0.295952
3.000,-0.224,0.297516
3.000,-0.184,0.299078
3.000,-0.143,0.300696
3.000,-0.102,0.302116
3.000,-0.061,0.303472
3.000,-0.020,0.305012
3.000,0.020,0.305620
3.000,0.061,0.305430
3.000,0.102,0.304706
3.000,0.143,0.304070
3.000,0.184,0.303614
3.000,0.224,0.302996
3.000,0.265,0.302380
3.000,0.306,0.302112
3.000,0.347,0.301750
3.000,0.388,0.301338
3.000,0.429,0.300928
3.000,0.469,0.300538
3.000,0.510,0.300190
3.000,0.551,0.299750
3.000,0.592,0.299214
3.000,0.633,0.298586
3.000,0.673,0.297736
3.000,0.714,0.297088
3.000,0.755,0.296758
3.000,0.796,0.296036
3.000,0.837,0.295538
3.000,0.878,0.294886
3.000,0.918,0.294446
3.000,0.959,0.293736
3.000,1.000,0.293266
